File: clay-plate-XRD-S2-2022/ENVT4461 S-12 Mg+Gly.csv
"Angle","Counts"
3.00243,25687
3.10023,23066
3.19803,20688
3.29583,19202
3.39363,17939
3.49142,16560
3.58922,15374
3.68702,14164
3.78482,13453
3.88261,12769
3.98041,11838
4.07821,11555
4.17601,10889
4.27381,10482
4.3716,10377
4.4694,9999
4.5672,9692
4.665,9659
4.7628,9449
4.86059,9450
4.95839,9484
5.05619,9534
5.15399,9580
5.25179,9876
5.34958,9669
5.44738,9696
5.54518,10032
5.64298,10035
5.74078,10198
5.83857,10417
5.93637,10231
6.03417,10651
6.13197,10510
6.22977,10543
6.32756,10772
6.42536,10552
6.52316,10579
6.62096,10638
6.71876,10372
6.81655,10334
6.91435,10310
7.01215,10145
7.10995,9952
7.20775,9703
7.30554,9539
7.40334,9284
7.50114,9026
7.59894,9109
7.69674,8839
7.79453,8468
7.89233,8290
7.99013,8229
8.08793,8134
8.18573,7927
8.28352,7739
8.38132,7739
8.47912,7476
8.57692,7519
8.67471,7191
8.77251,7266
8.87031,7162
8.96811,7093
9.06591,6947
9.1637,6991
9.2615,7031
9.3593,6901
9.4571,7068
9.5549,6928
9.65269,6951
9.75049,7461
9.84829,7418
9.94609,7112
10.0439,6569
10.1417,6320
10.2395,6273
10.3373,6254
10.4351,6133
10.5329,6081
10.6307,6149
10.7285,5994
10.8263,5903
10.9241,5793
11.0219,5847
11.1197,5786
11.2175,5797
11.3153,5686
11.4131,5677
11.5109,5686
11.6087,5778
11.7065,5788
11.8042,5687
11.902,5858
11.9998,5733
12.0976,5837
12.1954,5966
12.2932,6116
12.391,5959
12.4888,6188
12.5866,6262
12.6844,6255
12.7822,6412
12.88,6737
12.9778,6867
13.0756,7128
13.1734,7505
13.2712,8069
13.369,8694
13.4668,9806
13.5646,11131
13.6624,13293
13.7602,16236
13.858,20054
13.9558,22389
14.0536,18651
14.1514,11972
14.2492,8635
14.347,6820
14.4448,6025
14.5426,5243
14.6404,4833
14.7382,4477
14.836,4240
14.9338,4090
15.0316,3900
15.1294,3721
15.2272,3567
15.325,3453
15.4228,3393
15.5206,3412
15.6184,3352
15.7162,3146
15.814,3182
15.9118,3220
16.0096,3017
16.1074,3114
16.2052,3049
16.303,3169
16.4008,2904
16.4986,2964
16.5963,2945
16.6941,2913
16.7919,2929
16.8897,2863
16.9875,2709
17.0853,2772
17.1831,2692
17.2809,2819
17.3787,2685
17.4765,2744
17.5743,2760
17.6721,2703
17.7699,2639
17.8677,2653
17.9655,2662
18.0633,2651
18.1611,2667
18.2589,2731
18.3567,2773
18.4545,2649
18.5523,2626
18.6501,2585
18.7479,2617
18.8457,2495
18.9435,2626
19.0413,2537
19.1391,2559
19.2369,2599
19.3347,2632
19.4325,2620
19.5303,2714
19.6281,2571
19.7259,2663
19.8237,2706
19.9215,2631
20.0193,2689
20.1171,2869
20.2149,3058
20.3127,3005
20.4105,2900
20.5083,2762
20.6061,2705
20.7039,2635
20.8017,2650
20.8995,2708
20.9973,2712
21.0951,2611
21.1929,2634
21.2907,2565
21.3884,2587
21.4862,2455
21.584,2555
21.6818,2528
21.7796,2543
21.8774,2401
21.9752,2523
22.073,2546
22.1708,2640
22.2686,2709
22.3664,2856
22.4642,3011
22.562,3203
22.6598,3305
22.7576,3550
22.8554,3271
22.9532,3290
23.051,3130
23.1488,3142
23.2466,3214
23.3444,3000
23.4422,3121
23.54,3000
23.6378,3130
23.7356,3091
23.8334,3394
23.9312,3317
24.029,3230
24.1268,3088
24.2246,3059
24.3224,2973
24.4202,2946
24.518,2979
24.6158,2937
24.7136,2984
24.8114,2914
24.9092,2972
25.007,3171
25.1048,3202
25.2026,3102
25.3004,3065
25.3982,2905
25.496,2848
25.5938,2977
25.6916,2937
25.7894,2953
25.8872,3013
25.985,2992
26.0828,3030
26.1805,2940
26.2783,3044
26.3761,3020
26.4739,3072
26.5717,2979
26.6695,3072
26.7673,3136
26.8651,3028
26.9629,3290
27.0607,3321
27.1585,3440
27.2563,3277
27.3541,3477
27.4519,3440
27.5497,3737
27.6475,3866
27.7453,3903
27.8431,4285
27.9409,4592
28.0387,5047
28.1365,5697
28.2343,6613
28.3321,8025
28.4299,10480
28.5277,14451
28.6255,16421
28.7233,13342
28.8211,10085
28.9189,8406
29.0167,7328
29.1145,6846
29.2123,6195
29.3101,5735
29.4079,5411
29.5057,5139
29.6035,5068
29.7013,4831
29.7991,4666
29.8969,4702
29.9947,4556