File: clay-plate-XRD-S2-2022/ENVT4461 S-12 Heated-400.csv
"Angle","Counts"
3.00243,24683
3.10023,22666
3.19803,20538
3.29583,18801
3.39363,17276
3.49142,15951
3.58922,14867
3.68702,13860
3.78482,12908
3.88261,11970
3.98041,11047
4.07821,10810
4.17601,10236
4.27381,9574
4.3716,9241
4.4694,8841
4.5672,8266
4.665,8081
4.7628,7955
4.86059,7493
4.95839,7520
5.05619,7331
5.15399,7148
5.25179,7104
5.34958,7029
5.44738,6863
5.54518,6903
5.64298,6857
5.74078,6759
5.83857,6845
5.93637,6841
6.03417,6879
6.13197,6934
6.22977,6945
6.32756,6824
6.42536,6873
6.52316,7009
6.62096,7153
6.71876,7086
6.81655,7033
6.91435,7137
7.01215,7060
7.10995,7130
7.20775,7366
7.30554,7313
7.40334,7317
7.50114,7300
7.59894,7439
7.69674,7290
7.79453,7521
7.89233,7581
7.99013,7656
8.08793,7579
8.18573,7536
8.28352,7623
8.38132,7809
8.47912,8066
8.57692,7733
8.67471,8122
8.77251,8125
8.87031,8048
8.96811,8202
9.06591,8242
9.1637,8371
9.2615,8745
9.3593,8656
9.4571,8757
9.5549,8851
9.65269,9238
9.75049,9518
9.84829,9661
9.94609,9616
10.0439,9111
10.1417,8672
10.2395,8508
10.3373,8384
10.4351,8157
10.5329,8238
10.6307,8052
10.7285,7885
10.8263,7558
10.9241,7400
11.0219,7428
11.1197,7353
11.2175,7148
11.3153,7003
11.4131,7035
11.5109,6780
11.6087,6720
11.7065,6771
11.8042,6741
11.902,6451
11.9998,6540
12.0976,6575
12.1954,6660
12.2932,6693
12.391,6641
12.4888,6654
12.5866,6697
12.6844,6761
12.7822,6780
12.88,7065
12.9778,7127
13.0756,7389
13.1734,7725
13.2712,8052
13.369,8587
13.4668,9760
13.5646,10984
13.6624,12984
13.7602,15771
13.858,19236
13.9558,21878
14.0536,19159
14.1514,12658
14.2492,8959
14.347,6932
14.4448,5812
14.5426,5295
14.6404,4803
14.7382,4506
14.836,4306
14.9338,4071
15.0316,3811
15.1294,3664
15.2272,3607
15.325,3442
15.4228,3394
15.5206,3422
15.6184,3216
15.7162,3297
15.814,3210
15.9118,3095
16.0096,3116
16.1074,3007
16.2052,3066
16.303,2933
16.4008,2892
16.4986,2927
16.5963,2842
16.6941,2811
16.7919,2876
16.8897,2796
16.9875,2763
17.0853,2841
17.1831,2752
17.2809,2679
17.3787,2666
17.4765,2735
17.5743,2723
17.6721,2695
17.7699,2630
17.8677,2730
17.9655,2543
18.0633,2697
18.1611,2694
18.2589,2626
18.3567,2643
18.4545,2581
18.5523,2621
18.6501,2585
18.7479,2596
18.8457,2581
18.9435,2592
19.0413,2540
19.1391,2683
19.2369,2574
19.3347,2613
19.4325,2559
19.5303,2603
19.6281,2617
19.7259,2654
19.8237,2657
19.9215,2723
20.0193,2717
20.1171,2866
20.2149,2948
20.3127,3036
20.4105,2771
20.5083,2696
20.6061,2645
20.7039,2617
20.8017,2645
20.8995,2517
20.9973,2535
21.0951,2577
21.1929,2440
21.2907,2491
21.3884,2493
21.4862,2483
21.584,2456
21.6818,2384
21.7796,2463
21.8774,2450
21.9752,2495
22.073,2565
22.1708,2612
22.2686,2722
22.3664,2760
22.4642,3020
22.562,3173
22.6598,3196
22.7576,3273
22.8554,3314
22.9532,3192
23.051,3205
23.1488,3142
23.2466,3175
23.3444,3073
23.4422,3181
23.54,2993
23.6378,2962
23.7356,3201
23.8334,3284
23.9312,3451
24.029,3021
24.1268,3082
24.2246,2926
24.3224,2861
24.4202,2970
24.518,2762
24.6158,2889
24.7136,2897
24.8114,2823
24.9092,2913
25.007,2994
25.1048,3067
25.2026,3137
25.3004,3016
25.3982,2874
25.496,2910
25.5938,2905
25.6916,2869
25.7894,2827
25.8872,2857
25.985,2950
26.0828,2793
26.1805,2839
26.2783,2843
26.3761,2906
26.4739,2973
26.5717,2884
26.6695,3004
26.7673,3036
26.8651,2961
26.9629,3156
27.0607,3213
27.1585,3132
27.2563,3235
27.3541,3285
27.4519,3425
27.5497,3625
27.6475,3724
27.7453,3755
27.8431,4108
27.9409,4395
28.0387,4719
28.1365,5275
28.2343,6224
28.3321,7333
28.4299,9624
28.5277,13534
28.6255,16404
28.7233,13915
28.8211,10434
28.9189,8756
29.0167,7652
29.1145,7027
29.2123,6578
29.3101,6229
29.4079,5770
29.5057,5614
29.6035,5366
29.7013,5089
29.7991,5127
29.8969,4942
29.9947,4853