File: clay-plate-XRD-S2-2022/ENVT4461 S-13 Mg EY.csv
"Angle","Counts"
3.00243,25220
3.10023,23110
3.19803,21028
3.29583,19642
3.39363,18010
3.49142,16721
3.58922,15622
3.68702,14170
3.78482,13594
3.88261,12673
3.98041,11740
4.07821,11311
4.17601,10641
4.27381,9952
4.3716,9601
4.4694,9111
4.5672,8786
4.665,8571
4.7628,8225
4.86059,8073
4.95839,7776
5.05619,7805
5.15399,7674
5.25179,7510
5.34958,7475
5.44738,7606
5.54518,7406
5.64298,7379
5.74078,7375
5.83857,7549
5.93637,7596
6.03417,7613
6.13197,7574
6.22977,7693
6.32756,7577
6.42536,7742
6.52316,7791
6.62096,7788
6.71876,7775
6.81655,7478
6.91435,7544
7.01215,7567
7.10995,7411
7.20775,7240
7.30554,7219
7.40334,7014
7.50114,6972
7.59894,6940
7.69674,6890
7.79453,6670
7.89233,6607
7.99013,6589
8.08793,6478
8.18573,6400
8.28352,6343
8.38132,6215
8.47912,5995
8.57692,5965
8.67471,5946
8.77251,6096
8.87031,5799
8.96811,5734
9.06591,5871
9.1637,5898
9.2615,5895
9.3593,5849
9.4571,5953
9.5549,5961
9.65269,6085
9.75049,6092
9.84829,6344
9.94609,6320
10.0439,5817
10.1417,5763
10.2395,5657
10.3373,5382
10.4351,5376
10.5329,5290
10.6307,5397
10.7285,5111
10.8263,5099
10.9241,5145
11.0219,5152
11.1197,5139
11.2175,5180
11.3153,5179
11.4131,5013
11.5109,5119
11.6087,5175
11.7065,5111
11.8042,5120
11.902,5151
11.9998,5366
12.0976,5307
12.1954,5556
12.2932,5508
12.391,5567
12.4888,5808
12.5866,5846
12.6844,5930
12.7822,6023
12.88,6142
12.9778,6414
13.0756,6725
13.1734,7061
13.2712,7649
13.369,8399
13.4668,9651
13.5646,11083
13.6624,13802
13.7602,17642
13.858,22301
13.9558,25802
14.0536,22280
14.1514,13479
14.2492,9067
14.347,7180
14.4448,5824
14.5426,5119
14.6404,4715
14.7382,4241
14.836,4092
14.9338,4012
15.0316,3606
15.1294,3490
15.2272,3535
15.325,3385
15.4228,3221
15.5206,3223
15.6184,3134
15.7162,3070
15.814,3035
15.9118,3045
16.0096,2976
16.1074,2986
16.2052,2949
16.303,2933
16.4008,2831
16.4986,2722
16.5963,2757
16.6941,2734
16.7919,2800
16.8897,2735
16.9875,2714
17.0853,2597
17.1831,2732
17.2809,2617
17.3787,2600
17.4765,2659
17.5743,2581
17.6721,2583
17.7699,2581
17.8677,2518
17.9655,2546
18.0633,2468
18.1611,2509
18.2589,2566
18.3567,2629
18.4545,2537
18.5523,2469
18.6501,2395
18.7479,2489
18.8457,2451
18.9435,2510
19.0413,2512
19.1391,2423
19.2369,2522
19.3347,2460
19.4325,2551
19.5303,2510
19.6281,2479
19.7259,2497
19.8237,2486
19.9215,2599
20.0193,2641
20.1171,2668
20.2149,2880
20.3127,2798
20.4105,2715
20.5083,2646
20.6061,2587
20.7039,2605
20.8017,2673
20.8995,2707
20.9973,2609
21.0951,2418
21.1929,2476
21.2907,2402
21.3884,2460
21.4862,2446
21.584,2421
21.6818,2438
21.7796,2473
21.8774,2488
21.9752,2371
22.073,2464
22.1708,2524
22.2686,2621
22.3664,2666
22.4642,2851
22.562,3117
22.6598,3320
22.7576,3439
22.8554,3549
22.9532,3267
23.051,3267
23.1488,3252
23.2466,3194
23.3444,3196
23.4422,3202
23.54,3137
23.6378,3080
23.7356,3141
23.8334,3353
23.9312,3393
24.029,3216
24.1268,3238
24.2246,3228
24.3224,3309
24.4202,3287
24.518,3248
24.6158,3266
24.7136,3099
24.8114,3121
24.9092,3101
25.007,3081
25.1048,3057
25.2026,3004
25.3004,2993
25.3982,2991
25.496,2913
25.5938,2964
25.6916,2957
25.7894,3020
25.8872,2923
25.985,3005
26.0828,2984
26.1805,2860
26.2783,2953
26.3761,2957
26.4739,2998
26.5717,2942
26.6695,3033
26.7673,2998
26.8651,3082
26.9629,3154
27.0607,3218
27.1585,3200
27.2563,3215
27.3541,3292
27.4519,3425
27.5497,3590
27.6475,3740
27.7453,3914
27.8431,4186
27.9409,4512
28.0387,5109
28.1365,5755
28.2343,6630
28.3321,8311
28.4299,11289
28.5277,16746
28.6255,20641
28.7233,15838
28.8211,11120
28.9189,8662
29.0167,7297
29.1145,6719
29.2123,5947
29.3101,5345
29.4079,5048
29.5057,4894
29.6035,4707
29.7013,4312
29.7991,4185
29.8969,4272
29.9947,4258