File: clay-plate-XRD-S2-2022/ENVT4461 S-16 Heated-550.csv
"Angle","Counts"
3.00243,24852
3.10023,22475
3.19803,20435
3.29583,18444
3.39363,16930
3.49142,15745
3.58922,14715
3.68702,13714
3.78482,13109
3.88261,12202
3.98041,11562
4.07821,10917
4.17601,10576
4.27381,10016
4.3716,9516
4.4694,9467
4.5672,9198
4.665,8958
4.7628,8736
4.86059,8584
4.95839,8511
5.05619,8393
5.15399,8444
5.25179,8505
5.34958,8261
5.44738,8466
5.54518,8396
5.64298,8472
5.74078,8632
5.83857,8635
5.93637,8558
6.03417,8814
6.13197,8938
6.22977,8922
6.32756,8991
6.42536,9125
6.52316,9245
6.62096,9425
6.71876,9503
6.81655,9591
6.91435,9612
7.01215,9602
7.10995,9747
7.20775,9762
7.30554,9825
7.40334,9776
7.50114,10112
7.59894,10203
7.69674,10266
7.79453,10482
7.89233,10451
7.99013,10618
8.08793,10716
8.18573,10833
8.28352,11037
8.38132,11130
8.47912,11325
8.57692,11359
8.67471,11559
8.77251,11619
8.87031,11798
8.96811,11990
9.06591,12133
9.1637,12217
9.2615,12605
9.3593,12858
9.4571,13357
9.5549,13726
9.65269,14720
9.75049,15386
9.84829,15509
9.94609,14703
10.0439,13936
10.1417,12964
10.2395,12641
10.3373,11909
10.4351,11656
10.5329,10941
10.6307,10587
10.7285,9843
10.8263,9378
10.9241,8814
11.0219,8255
11.1197,7853
11.2175,7279
11.3153,6850
11.4131,6577
11.5109,6163
11.6087,6001
11.7065,5455
11.8042,5234
11.902,5054
11.9998,4820
12.0976,4630
12.1954,4517
12.2932,4296
12.391,4181
12.4888,3921
12.5866,3974
12.6844,3833
12.7822,3765
12.88,3722
12.9778,3748
13.0756,3438
13.1734,3451
13.2712,3432
13.369,3419
13.4668,3381
13.5646,3310
13.6624,3269
13.7602,3373
13.858,3174
13.9558,3153
14.0536,3187
14.1514,3293
14.2492,3207
14.347,3150
14.4448,3219
14.5426,3145
14.6404,3194
14.7382,3172
14.836,3153
14.9338,3219
15.0316,3173
15.1294,3155
15.2272,3228
15.325,3145
15.4228,3118
15.5206,3122
15.6184,3166
15.7162,3052
15.814,3229
15.9118,3036
16.0096,3096
16.1074,3088
16.2052,3118
16.303,3063
16.4008,2970
16.4986,3013
16.5963,3043
16.6941,3111
16.7919,3107
16.8897,3044
16.9875,2994
17.0853,3109
17.1831,3048
17.2809,3082
17.3787,3075
17.4765,3021
17.5743,3054
17.6721,3131
17.7699,3123
17.8677,3043
17.9655,3087
18.0633,3030
18.1611,3100
18.2589,3174
18.3567,3158
18.4545,3074
18.5523,3191
18.6501,3175
18.7479,3323
18.8457,3201
18.9435,3308
19.0413,3243
19.1391,3219
19.2369,3383
19.3347,3348
19.4325,3314
19.5303,3393
19.6281,3535
19.7259,3558
19.8237,3650
19.9215,3810
20.0193,3988
20.1171,4072
20.2149,3974
20.3127,3723
20.4105,3441
20.5083,3603
20.6061,3569
20.7039,3538
20.8017,3392
20.8995,3381
20.9973,3413
21.0951,3468
21.1929,3365
21.2907,3267
21.3884,3402
21.4862,3187
21.584,3312
21.6818,3283
21.7796,3188
21.8774,3210
21.9752,3158
22.073,3300
22.1708,3241
22.2686,3217
22.3664,3227
22.4642,3241
22.562,3354
22.6598,3417
22.7576,3271
22.8554,3317
22.9532,3439
23.051,3196
23.1488,3294
23.2466,3217
23.3444,3266
23.4422,3231
23.54,3324
23.6378,3253
23.7356,3471
23.8334,3603
23.9312,3351
24.029,3233
24.1268,3250
24.2246,3298
24.3224,3139
24.4202,3194
24.518,3200
24.6158,3145
24.7136,3165
24.8114,3201
24.9092,3185
25.007,3323
25.1048,3304
25.2026,3404
25.3004,3263
25.3982,3163
25.496,3230
25.5938,3224
25.6916,3132
25.7894,3188
25.8872,3228
25.985,3280
26.0828,3209
26.1805,3197
26.2783,3076
26.3761,3243
26.4739,3274
26.5717,3235
26.6695,3323
26.7673,3185
26.8651,3116
26.9629,3348
27.0607,3408
27.1585,3250
27.2563,3342
27.3541,3253
27.4519,3270
27.5497,3333
27.6475,3341
27.7453,3359
27.8431,3317
27.9409,3365
28.0387,3360
28.1365,3367
28.2343,3434
28.3321,3417
28.4299,3272
28.5277,3303
28.6255,3428
28.7233,3538
28.8211,3627
28.9189,3769
29.0167,4067
29.1145,4037
29.2123,3940
29.3101,3951
29.4079,3864
29.5057,4107
29.6035,4147
29.7013,4304
29.7991,4381
29.8969,4610
29.9947,4753