File: clay-plate-XRD-S2-2022/ENVT4461 S-15 Mg+Gly.csv
"Angle","Counts"
3.00243,26615
3.10023,24178
3.19803,22677
3.29583,21306
3.39363,20233
3.49142,19111
3.58922,18387
3.68702,17847
3.78482,17064
3.88261,16177
3.98041,15843
4.07821,15302
4.17601,14737
4.27381,14651
4.3716,14374
4.4694,14211
4.5672,13980
4.665,13888
4.7628,13717
4.86059,13477
4.95839,13563
5.05619,13372
5.15399,13259
5.25179,13196
5.34958,13185
5.44738,12937
5.54518,12750
5.64298,12824
5.74078,12379
5.83857,12520
5.93637,12202
6.03417,11879
6.13197,11921
6.22977,11796
6.32756,11492
6.42536,11765
6.52316,11245
6.62096,11012
6.71876,11029
6.81655,10525
6.91435,10589
7.01215,10581
7.10995,10472
7.20775,10040
7.30554,9884
7.40334,9803
7.50114,9660
7.59894,9453
7.69674,9408
7.79453,9353
7.89233,9174
7.99013,9075
8.08793,9007
8.18573,8906
8.28352,8956
8.38132,8733
8.47912,8684
8.57692,8521
8.67471,8560
8.77251,8724
8.87031,8590
8.96811,8660
9.06591,8782
9.1637,8835
9.2615,8753
9.3593,8761
9.4571,8806
9.5549,9119
9.65269,9204
9.75049,9454
9.84829,9575
9.94609,9819
10.0439,9396
10.1417,9178
10.2395,8908
10.3373,8873
10.4351,8486
10.5329,8444
10.6307,8250
10.7285,8371
10.8263,8224
10.9241,8066
11.0219,7965
11.1197,7821
11.2175,8038
11.3153,7889
11.4131,7863
11.5109,7853
11.6087,7775
11.7065,7711
11.8042,7781
11.902,7587
11.9998,7650
12.0976,7523
12.1954,7729
12.2932,7914
12.391,7981
12.4888,7957
12.5866,7968
12.6844,8116
12.7822,8432
12.88,8499
12.9778,8694
13.0756,8991
13.1734,9615
13.2712,10022
13.369,10830
13.4668,11925
13.5646,13491
13.6624,15591
13.7602,18848
13.858,23407
13.9558,28072
14.0536,29226
14.1514,22929
14.2492,14930
14.347,10691
14.4448,8487
14.5426,7127
14.6404,6233
14.7382,5651
14.836,5182
14.9338,4874
15.0316,4625
15.1294,4458
15.2272,4251
15.325,4038
15.4228,3920
15.5206,3743
15.6184,3639
15.7162,3691
15.814,3410
15.9118,3331
16.0096,3364
16.1074,3264
16.2052,3344
16.303,3185
16.4008,3093
16.4986,3247
16.5963,3162
16.6941,3073
16.7919,3029
16.8897,2973
16.9875,2999
17.0853,3077
17.1831,2829
17.2809,2814
17.3787,2986
17.4765,2836
17.5743,2813
17.6721,2787
17.7699,2830
17.8677,2753
17.9655,2827
18.0633,2738
18.1611,2800
18.2589,2677
18.3567,2633
18.4545,2712
18.5523,2692
18.6501,2615
18.7479,2756
18.8457,2699
18.9435,2657
19.0413,2633
19.1391,2626
19.2369,2679
19.3347,2689
19.4325,2632
19.5303,2644
19.6281,2664
19.7259,2707
19.8237,2555
19.9215,2671
20.0193,2707
20.1171,2720
20.2149,2922
20.3127,2995
20.4105,2914
20.5083,2783
20.6061,2805
20.7039,2722
20.8017,2736
20.8995,2803
20.9973,2770
21.0951,2673
21.1929,2656
21.2907,2611
21.3884,2648
21.4862,2661
21.584,2603
21.6818,2650
21.7796,2591
21.8774,2537
21.9752,2672
22.073,2553
22.1708,2751
22.2686,2748
22.3664,2769
22.4642,3004
22.562,3075
22.6598,3331
22.7576,3470
22.8554,3650
22.9532,3479
23.051,3521
23.1488,3431
23.2466,3301
23.3444,3381
23.4422,3347
23.54,3311
23.6378,3219
23.7356,3269
23.8334,3297
23.9312,3253
24.029,3346
24.1268,3323
24.2246,3228
24.3224,3286
24.4202,3142
24.518,3304
24.6158,3261
24.7136,3253
24.8114,3111
24.9092,3160
25.007,3066
25.1048,3076
25.2026,3122
25.3004,3219
25.3982,3135
25.496,3166
25.5938,3171
25.6916,3141
25.7894,3166
25.8872,3300
25.985,3405
26.0828,3284
26.1805,3327
26.2783,3156
26.3761,3304
26.4739,3325
26.5717,3415
26.6695,3355
26.7673,3354
26.8651,3389
26.9629,3512
27.0607,3542
27.1585,3512
27.2563,3723
27.3541,3789
27.4519,3974
27.5497,4170
27.6475,4079
27.7453,4437
27.8431,4860
27.9409,5103
28.0387,5670
28.1365,6240
28.2343,7257
28.3321,8425
28.4299,10799
28.5277,14554
28.6255,19949
28.7233,21847
28.8211,16853
28.9189,12464
29.0167,10355
29.1145,9049
29.2123,7959
29.3101,7467
29.4079,6707
29.5057,6370
29.6035,5952
29.7013,5735
29.7991,5485
29.8969,5261
29.9947,5123