File: clay-plate-XRD-S2-2022/ENVT4461 S-12 Heated-550.csv
"Angle","Counts"
3.00243,25861
3.10023,23616
3.19803,21497
3.29583,19478
3.39363,18273
3.49142,17163
3.58922,15752
3.68702,14668
3.78482,13587
3.88261,12553
3.98041,11856
4.07821,11040
4.17601,10621
4.27381,9806
4.3716,9404
4.4694,8935
4.5672,8456
4.665,8166
4.7628,7846
4.86059,7507
4.95839,7257
5.05619,7082
5.15399,6914
5.25179,6790
5.34958,6561
5.44738,6488
5.54518,6320
5.64298,6250
5.74078,6216
5.83857,6167
5.93637,6247
6.03417,6435
6.13197,6064
6.22977,6336
6.32756,6383
6.42536,6496
6.52316,6413
6.62096,6447
6.71876,6390
6.81655,6451
6.91435,6607
7.01215,6482
7.10995,6656
7.20775,6549
7.30554,6747
7.40334,6696
7.50114,6728
7.59894,6958
7.69674,6927
7.79453,7029
7.89233,7183
7.99013,7215
8.08793,7091
8.18573,7131
8.28352,7424
8.38132,7372
8.47912,7515
8.57692,7522
8.67471,7602
8.77251,7812
8.87031,7860
8.96811,7623
9.06591,8007
9.1637,7877
9.2615,8125
9.3593,8236
9.4571,8459
9.5549,8677
9.65269,8926
9.75049,9255
9.84829,9478
9.94609,9336
10.0439,8821
10.1417,8242
10.2395,8030
10.3373,7870
10.4351,7726
10.5329,7364
10.6307,7242
10.7285,7030
10.8263,6696
10.9241,6315
11.0219,5919
11.1197,5650
11.2175,5508
11.3153,5255
11.4131,5066
11.5109,4758
11.6087,4530
11.7065,4533
11.8042,4358
11.902,4140
11.9998,3992
12.0976,3980
12.1954,3736
12.2932,3690
12.391,3621
12.4888,3443
12.5866,3424
12.6844,3342
12.7822,3277
12.88,3270
12.9778,3242
13.0756,3220
13.1734,3089
13.2712,3118
13.369,3150
13.4668,3088
13.5646,3173
13.6624,2985
13.7602,3101
13.858,3030
13.9558,2879
14.0536,2959
14.1514,2878
14.2492,2918
14.347,2831
14.4448,2863
14.5426,2862
14.6404,2887
14.7382,2893
14.836,2976
14.9338,2988
15.0316,2933
15.1294,2857
15.2272,2838
15.325,2943
15.4228,2821
15.5206,2922
15.6184,2887
15.7162,2829
15.814,2820
15.9118,2715
16.0096,2697
16.1074,2811
16.2052,2711
16.303,2822
16.4008,2775
16.4986,2752
16.5963,2770
16.6941,2846
16.7919,2730
16.8897,2746
16.9875,2756
17.0853,2702
17.1831,2723
17.2809,2816
17.3787,2821
17.4765,2817
17.5743,2751
17.6721,2770
17.7699,2773
17.8677,2823
17.9655,2677
18.0633,2714
18.1611,2879
18.2589,2867
18.3567,2932
18.4545,2803
18.5523,2898
18.6501,2996
18.7479,2874
18.8457,2787
18.9435,2912
19.0413,2873
19.1391,2870
19.2369,2871
19.3347,2937
19.4325,2970
19.5303,2999
19.6281,3021
19.7259,3109
19.8237,3125
19.9215,3246
20.0193,3175
20.1171,3412
20.2149,3346
20.3127,3341
20.4105,3160
20.5083,3041
20.6061,3065
20.7039,3066
20.8017,2967
20.8995,3034
20.9973,2969
21.0951,3037
21.1929,2927
21.2907,2977
21.3884,3002
21.4862,2949
21.584,2950
21.6818,3092
21.7796,2991
21.8774,2897
21.9752,2909
22.073,2995
22.1708,2944
22.2686,2989
22.3664,3150
22.4642,3230
22.562,3436
22.6598,3392
22.7576,3461
22.8554,3333
22.9532,3427
23.051,3346
23.1488,3247
23.2466,3288
23.3444,3186
23.4422,3253
23.54,3262
23.6378,3272
23.7356,3397
23.8334,3679
23.9312,3660
24.029,3349
24.1268,3303
24.2246,3194
24.3224,3113
24.4202,3166
24.518,3098
24.6158,3231
24.7136,3219
24.8114,3195
24.9092,3189
25.007,3408
25.1048,3450
25.2026,3342
25.3004,3331
25.3982,3223
25.496,3241
25.5938,3169
25.6916,3166
25.7894,3207
25.8872,3232
25.985,3121
26.0828,3195
26.1805,3187
26.2783,3102
26.3761,3116
26.4739,3171
26.5717,3198
26.6695,3230
26.7673,3256
26.8651,3142
26.9629,3162
27.0607,3354
27.1585,3213
27.2563,3155
27.3541,3117
27.4519,3228
27.5497,3210
27.6475,3178
27.7453,3267
27.8431,3215
27.9409,3310
28.0387,3229
28.1365,3156
28.2343,3207
28.3321,3177
28.4299,3080
28.5277,3204
28.6255,3320
28.7233,3309
28.8211,3350
28.9189,3468
29.0167,3642
29.1145,3732
29.2123,3741
29.3101,3671
29.4079,3707
29.5057,3574
29.6035,3619
29.7013,3785
29.7991,3774
29.8969,3823
29.9947,4054