File: clay-plate-XRD-S2-2022/ENVT4461 S-14 Mg+Gly.csv
"Angle","Counts"
3.00243,25545
3.10023,23132
3.19803,21147
3.29583,20077
3.39363,18599
3.49142,17130
3.58922,16109
3.68702,15291
3.78482,14029
3.88261,13255
3.98041,12440
4.07821,12107
4.17601,11272
4.27381,10734
4.3716,10313
4.4694,9916
4.5672,9290
4.665,9251
4.7628,8944
4.86059,8681
4.95839,8558
5.05619,8257
5.15399,8015
5.25179,7846
5.34958,7853
5.44738,7740
5.54518,7429
5.64298,7423
5.74078,7339
5.83857,7382
5.93637,7180
6.03417,7354
6.13197,7187
6.22977,7117
6.32756,7022
6.42536,7137
6.52316,7078
6.62096,6928
6.71876,6888
6.81655,6702
6.91435,6823
7.01215,6733
7.10995,6642
7.20775,6588
7.30554,6726
7.40334,6449
7.50114,6468
7.59894,6439
7.69674,6473
7.79453,6418
7.89233,6318
7.99013,6477
8.08793,6362
8.18573,6317
8.28352,6228
8.38132,6184
8.47912,6219
8.57692,6318
8.67471,6258
8.77251,6298
8.87031,6264
8.96811,6314
9.06591,6245
9.1637,6286
9.2615,6186
9.3593,6362
9.4571,6596
9.5549,6653
9.65269,6838
9.75049,7060
9.84829,7089
9.94609,7158
10.0439,6994
10.1417,6696
10.2395,6572
10.3373,6547
10.4351,6376
10.5329,6335
10.6307,6208
10.7285,6286
10.8263,6178
10.9241,6228
11.0219,6045
11.1197,6172
11.2175,6039
11.3153,5961
11.4131,6203
11.5109,5922
11.6087,6092
11.7065,5934
11.8042,5954
11.902,6146
11.9998,6058
12.0976,6085
12.1954,6007
12.2932,6133
12.391,6155
12.4888,6003
12.5866,6194
12.6844,6195
12.7822,6466
12.88,6540
12.9778,6594
13.0756,6807
13.1734,6967
13.2712,7166
13.369,7780
13.4668,8475
13.5646,9503
13.6624,11002
13.7602,13206
13.858,16481
13.9558,19574
14.0536,19860
14.1514,13619
14.2492,9368
14.347,7018
14.4448,5986
14.5426,5296
14.6404,4839
14.7382,4473
14.836,4303
14.9338,4091
15.0316,3963
15.1294,3708
15.2272,3521
15.325,3563
15.4228,3337
15.5206,3345
15.6184,3390
15.7162,3215
15.814,3220
15.9118,3105
16.0096,3033
16.1074,2978
16.2052,3010
16.303,3016
16.4008,2969
16.4986,2842
16.5963,2963
16.6941,2929
16.7919,2811
16.8897,2833
16.9875,2849
17.0853,2789
17.1831,2812
17.2809,2723
17.3787,2742
17.4765,2777
17.5743,2713
17.6721,2714
17.7699,2694
17.8677,2700
17.9655,2628
18.0633,2665
18.1611,2740
18.2589,2699
18.3567,2665
18.4545,2707
18.5523,2706
18.6501,2499
18.7479,2575
18.8457,2617
18.9435,2593
19.0413,2615
19.1391,2638
19.2369,2608
19.3347,2644
19.4325,2590
19.5303,2670
19.6281,2712
19.7259,2752
19.8237,2671
19.9215,2745
20.0193,2787
20.1171,2864
20.2149,2824
20.3127,2996
20.4105,2809
20.5083,2842
20.6061,2801
20.7039,2707
20.8017,2687
20.8995,2859
20.9973,2806
21.0951,2676
21.1929,2717
21.2907,2795
21.3884,2654
21.4862,2674
21.584,2756
21.6818,2702
21.7796,2678
21.8774,2864
21.9752,2800
22.073,2793
22.1708,2864
22.2686,2916
22.3664,3104
22.4642,3281
22.562,3385
22.6598,3639
22.7576,4063
22.8554,4069
22.9532,3834
23.051,3728
23.1488,3802
23.2466,3773
23.3444,3777
23.4422,3752
23.54,3700
23.6378,3613
23.7356,3674
23.8334,3691
23.9312,3821
24.029,3619
24.1268,3637
24.2246,3583
24.3224,3722
24.4202,3579
24.518,3595
24.6158,3708
24.7136,3588
24.8114,3477
24.9092,3577
25.007,3499
25.1048,3392
25.2026,3510
25.3004,3424
25.3982,3525
25.496,3547
25.5938,3506
25.6916,3523
25.7894,3438
25.8872,3385
25.985,3508
26.0828,3491
26.1805,3415
26.2783,3332
26.3761,3594
26.4739,3418
26.5717,3543
26.6695,3565
26.7673,3560
26.8651,3610
26.9629,3613
27.0607,3590
27.1585,3818
27.2563,3617
27.3541,3911
27.4519,3833
27.5497,3964
27.6475,4037
27.7453,4348
27.8431,4366
27.9409,4701
28.0387,5008
28.1365,5408
28.2343,6145
28.3321,6983
28.4299,8818
28.5277,11948
28.6255,16075
28.7233,15175
28.8211,11121
28.9189,8763
29.0167,7695
29.1145,6812
29.2123,6417
29.3101,5784
29.4079,5505
29.5057,5295
29.6035,5078
29.7013,4889
29.7991,4773
29.8969,4531
29.9947,4485