File: clay-plate-XRD-S2-2022/ENVT4461 S-12 Mg.csv
"Angle","Counts"
3.00243,25431
3.10023,22796
3.19803,20517
3.29583,18981
3.39363,17429
3.49142,16277
3.58922,15160
3.68702,14151
3.78482,13414
3.88261,12589
3.98041,11895
4.07821,11262
4.17601,10946
4.27381,10364
4.3716,10355
4.4694,9838
4.5672,9597
4.665,9603
4.7628,9435
4.86059,9493
4.95839,9294
5.05619,9412
5.15399,9352
5.25179,9762
5.34958,9774
5.44738,9686
5.54518,9882
5.64298,9945
5.74078,10129
5.83857,10463
5.93637,10240
6.03417,10210
6.13197,10365
6.22977,10388
6.32756,10581
6.42536,10252
6.52316,10405
6.62096,10416
6.71876,10121
6.81655,9982
6.91435,9758
7.01215,9792
7.10995,9427
7.20775,9229
7.30554,9140
7.40334,8939
7.50114,8625
7.59894,8540
7.69674,8356
7.79453,8124
7.89233,7932
7.99013,8062
8.08793,7693
8.18573,7468
8.28352,7428
8.38132,7296
8.47912,7357
8.57692,7077
8.67471,6908
8.77251,6816
8.87031,6693
8.96811,6639
9.06591,6671
9.1637,6687
9.2615,6596
9.3593,6523
9.4571,6578
9.5549,6720
9.65269,6750
9.75049,7001
9.84829,7141
9.94609,6854
10.0439,6341
10.1417,6127
10.2395,5945
10.3373,6001
10.4351,5909
10.5329,5912
10.6307,5771
10.7285,5740
10.8263,5777
10.9241,5568
11.0219,5654
11.1197,5700
11.2175,5535
11.3153,5708
11.4131,5608
11.5109,5501
11.6087,5674
11.7065,5651
11.8042,5545
11.902,5516
11.9998,5712
12.0976,5758
12.1954,5908
12.2932,5952
12.391,6027
12.4888,6070
12.5866,6226
12.6844,6285
12.7822,6467
12.88,6646
12.9778,6902
13.0756,7198
13.1734,7534
13.2712,7990
13.369,8575
13.4668,9442
13.5646,10913
13.6624,12877
13.7602,15567
13.858,19022
13.9558,20472
14.0536,16662
14.1514,10860
14.2492,8093
14.347,6566
14.4448,5772
14.5426,5183
14.6404,4895
14.7382,4468
14.836,4219
14.9338,4035
15.0316,3888
15.1294,3740
15.2272,3638
15.325,3610
15.4228,3479
15.5206,3564
15.6184,3381
15.7162,3375
15.814,3153
15.9118,3308
16.0096,3177
16.1074,3323
16.2052,3258
16.303,3173
16.4008,3085
16.4986,3085
16.5963,2967
16.6941,3006
16.7919,2986
16.8897,2952
16.9875,2980
17.0853,2945
17.1831,2958
17.2809,2849
17.3787,2988
17.4765,2871
17.5743,2859
17.6721,2841
17.7699,3001
17.8677,2871
17.9655,2775
18.0633,2741
18.1611,2860
18.2589,2844
18.3567,2715
18.4545,2833
18.5523,2832
18.6501,2791
18.7479,2722
18.8457,2910
18.9435,2818
19.0413,2678
19.1391,2793
19.2369,2785
19.3347,2773
19.4325,2832
19.5303,2807
19.6281,2801
19.7259,2757
19.8237,2750
19.9215,2785
20.0193,2925
20.1171,3040
20.2149,3082
20.3127,3113
20.4105,2976
20.5083,2928
20.6061,2920
20.7039,2797
20.8017,2775
20.8995,2821
20.9973,2741
21.0951,2645
21.1929,2790
21.2907,2640
21.3884,2581
21.4862,2623
21.584,2627
21.6818,2627
21.7796,2579
21.8774,2695
21.9752,2626
22.073,2673
22.1708,2839
22.2686,2907
22.3664,2944
22.4642,3168
22.562,3190
22.6598,3373
22.7576,3345
22.8554,3376
22.9532,3368
23.051,3347
23.1488,3154
23.2466,3171
23.3444,3160
23.4422,3067
23.54,3056
23.6378,3081
23.7356,3187
23.8334,3315
23.9312,3312
24.029,3030
24.1268,3121
24.2246,3068
24.3224,3004
24.4202,2971
24.518,3003
24.6158,2953
24.7136,2931
24.8114,2899
24.9092,2895
25.007,2948
25.1048,2916
25.2026,2977
25.3004,2983
25.3982,2936
25.496,2895
25.5938,2916
25.6916,3079
25.7894,2930
25.8872,3017
25.985,2992
26.0828,2917
26.1805,2895
26.2783,2945
26.3761,2996
26.4739,2947
26.5717,3097
26.6695,3132
26.7673,3140
26.8651,3073
26.9629,3222
27.0607,3301
27.1585,3359
27.2563,3352
27.3541,3500
27.4519,3558
27.5497,3664
27.6475,3971
27.7453,4037
27.8431,4291
27.9409,4551
28.0387,4902
28.1365,5418
28.2343,6461
28.3321,7919
28.4299,9992
28.5277,13917
28.6255,16132
28.7233,12667
28.8211,9624
28.9189,7894
29.0167,7085
29.1145,6395
29.2123,6000
29.3101,5945
29.4079,6175
29.5057,5231
29.6035,4779
29.7013,4666
29.7991,4502
29.8969,4475
29.9947,4599