File: clay-plate-XRD-S2-2022/ENVT4461 S-16 Mg+Gly EY.csv
"Angle","Counts"
3.00243,26542
3.10023,24272
3.19803,22045
3.29583,20615
3.39363,18866
3.49142,17624
3.58922,16455
3.68702,15506
3.78482,14857
3.88261,14335
3.98041,13768
4.07821,13383
4.17601,12972
4.27381,12527
4.3716,12411
4.4694,12076
4.5672,11857
4.665,11881
4.7628,12074
4.86059,11956
4.95839,12259
5.05619,12179
5.15399,12367
5.25179,12468
5.34958,12941
5.44738,12736
5.54518,13094
5.64298,13577
5.74078,13236
5.83857,13599
5.93637,13741
6.03417,14076
6.13197,14123
6.22977,14127
6.32756,14019
6.42536,14376
6.52316,14321
6.62096,14226
6.71876,14187
6.81655,14006
6.91435,13843
7.01215,13817
7.10995,13566
7.20775,13331
7.30554,12950
7.40334,12843
7.50114,12443
7.59894,12198
7.69674,12148
7.79453,11970
7.89233,11591
7.99013,11564
8.08793,11419
8.18573,11012
8.28352,11030
8.38132,10809
8.47912,10633
8.57692,10505
8.67471,10245
8.77251,10258
8.87031,10074
8.96811,10019
9.06591,10076
9.1637,10012
9.2615,10018
9.3593,9899
9.4571,10384
9.5549,10470
9.65269,10543
9.75049,11021
9.84829,11379
9.94609,10577
10.0439,10129
10.1417,9467
10.2395,9184
10.3373,8803
10.4351,8686
10.5329,8760
10.6307,8452
10.7285,8275
10.8263,8162
10.9241,7979
11.0219,7830
11.1197,7846
11.2175,7812
11.3153,7751
11.4131,7743
11.5109,7730
11.6087,7735
11.7065,7549
11.8042,7613
11.902,7914
11.9998,7819
12.0976,7889
12.1954,7984
12.2932,8035
12.391,8233
12.4888,8429
12.5866,8821
12.6844,8848
12.7822,9280
12.88,9423
12.9778,10063
13.0756,10567
13.1734,11469
13.2712,12737
13.369,14338
13.4668,16437
13.5646,20021
13.6624,24952
13.7602,32669
13.858,41497
13.9558,47520
14.0536,37975
14.1514,22591
14.2492,15055
14.347,11297
14.4448,9026
14.5426,7741
14.6404,6785
14.7382,6114
14.836,5602
14.9338,5231
15.0316,4856
15.1294,4830
15.2272,4568
15.325,4423
15.4228,4153
15.5206,3985
15.6184,3967
15.7162,3645
15.814,3716
15.9118,3686
16.0096,3905
16.1074,3611
16.2052,3509
16.303,3330
16.4008,3350
16.4986,3241
16.5963,3157
16.6941,3110
16.7919,3008
16.8897,3109
16.9875,3077
17.0853,3043
17.1831,3000
17.2809,2965
17.3787,2947
17.4765,2849
17.5743,2905
17.6721,2859
17.7699,2921
17.8677,2890
17.9655,2877
18.0633,2864
18.1611,2739
18.2589,2807
18.3567,2859
18.4545,2802
18.5523,2863
18.6501,2887
18.7479,2886
18.8457,2795
18.9435,2753
19.0413,2964
19.1391,2812
19.2369,2757
19.3347,2853
19.4325,2847
19.5303,2774
19.6281,2956
19.7259,2817
19.8237,2981
19.9215,3052
20.0193,3047
20.1171,3129
20.2149,3419
20.3127,3480
20.4105,3282
20.5083,3021
20.6061,2966
20.7039,2958
20.8017,2940
20.8995,2976
20.9973,2786
21.0951,2693
21.1929,2730
21.2907,2690
21.3884,2744
21.4862,2652
21.584,2558
21.6818,2545
21.7796,2626
21.8774,2618
21.9752,2536
22.073,2613
22.1708,2456
22.2686,2606
22.3664,2673
22.4642,2758
22.562,2908
22.6598,2998
22.7576,2955
22.8554,3090
22.9532,2925
23.051,2846
23.1488,2815
23.2466,2987
23.3444,2839
23.4422,2911
23.54,2878
23.6378,2971
23.7356,2933
23.8334,3180
23.9312,3041
24.029,2765
24.1268,2804
24.2246,2882
24.3224,2862
24.4202,2874
24.518,2824
24.6158,2727
24.7136,2870
24.8114,2777
24.9092,2798
25.007,2826
25.1048,2901
25.2026,2961
25.3004,2968
25.3982,2871
25.496,2683
25.5938,2835
25.6916,2868
25.7894,2896
25.8872,2991
25.985,2904
26.0828,2763
26.1805,2944
26.2783,2925
26.3761,2791
26.4739,3023
26.5717,3002
26.6695,3026
26.7673,3078
26.8651,3209
26.9629,3379
27.0607,3504
27.1585,3568
27.2563,3668
27.3541,3601
27.4519,4052
27.5497,4201
27.6475,4410
27.7453,4837
27.8431,5385
27.9409,6050
28.0387,6848
28.1365,8236
28.2343,10170
28.3321,12876
28.4299,18534
28.5277,26942
28.6255,31547
28.7233,24608
28.8211,17005
28.9189,13191
29.0167,10846
29.1145,9353
29.2123,8421
29.3101,7631
29.4079,7130
29.5057,6512
29.6035,6428
29.7013,6227
29.7991,5941
29.8969,5897
29.9947,5629