File: clay-plate-XRD-S2-2022/ENVT4461 S-16 Mg +moist.csv
"Angle","Counts"
3.00243,28205
3.10023,26102
3.19803,24119
3.29583,21803
3.39363,20680
3.49142,19176
3.58922,17815
3.68702,17017
3.78482,16092
3.88261,15227
3.98041,14213
4.07821,13825
4.17601,12907
4.27381,12561
4.3716,11985
4.4694,11696
4.5672,11201
4.665,10726
4.7628,10360
4.86059,10086
4.95839,9887
5.05619,9529
5.15399,9360
5.25179,9021
5.34958,9027
5.44738,8635
5.54518,8581
5.64298,8304
5.74078,8210
5.83857,8212
5.93637,8031
6.03417,7937
6.13197,7915
6.22977,7592
6.32756,7789
6.42536,7578
6.52316,7497
6.62096,7591
6.71876,7421
6.81655,7271
6.91435,7266
7.01215,7285
7.10995,7076
7.20775,6870
7.30554,6985
7.40334,6914
7.50114,6970
7.59894,7078
7.69674,6856
7.79453,6794
7.89233,6712
7.99013,6847
8.08793,6873
8.18573,6768
8.28352,6686
8.38132,6913
8.47912,6903
8.57692,6831
8.67471,6888
8.77251,6704
8.87031,6852
8.96811,6721
9.06591,6898
9.1637,7074
9.2615,7009
9.3593,7163
9.4571,7364
9.5549,7363
9.65269,7448
9.75049,7469
9.84829,7579
9.94609,7688
10.0439,7460
10.1417,7329
10.2395,7072
10.3373,6805
10.4351,6721
10.5329,6595
10.6307,6631
10.7285,6343
10.8263,6216
10.9241,6266
11.0219,6016
11.1197,5956
11.2175,5767
11.3153,5808
11.4131,5839
11.5109,5660
11.6087,5555
11.7065,5558
11.8042,5334
11.902,5372
11.9998,5525
12.0976,5402
12.1954,5526
12.2932,5508
12.391,5428
12.4888,5499
12.5866,5545
12.6844,5808
12.7822,5808
12.88,5912
12.9778,6123
13.0756,6261
13.1734,6774
13.2712,7101
13.369,7536
13.4668,8390
13.5646,9006
13.6624,10615
13.7602,12478
13.858,14920
13.9558,17184
14.0536,17227
14.1514,15364
14.2492,11435
14.347,8650
14.4448,6821
14.5426,5747
14.6404,4987
14.7382,4555
14.836,4264
14.9338,3995
15.0316,3792
15.1294,3615
15.2272,3512
15.325,3326
15.4228,3338
15.5206,3125
15.6184,3215
15.7162,3089
15.814,3132
15.9118,3075
16.0096,2929
16.1074,2884
16.2052,2821
16.303,2810
16.4008,2819
16.4986,2748
16.5963,2814
16.6941,2739
16.7919,2771
16.8897,2612
16.9875,2722
17.0853,2643
17.1831,2655
17.2809,2527
17.3787,2536
17.4765,2616
17.5743,2557
17.6721,2576
17.7699,2575
17.8677,2509
17.9655,2459
18.0633,2443
18.1611,2579
18.2589,2535
18.3567,2512
18.4545,2434
18.5523,2412
18.6501,2507
18.7479,2422
18.8457,2424
18.9435,2434
19.0413,2389
19.1391,2430
19.2369,2388
19.3347,2395
19.4325,2441
19.5303,2433
19.6281,2375
19.7259,2512
19.8237,2416
19.9215,2368
20.0193,2493
20.1171,2478
20.2149,2628
20.3127,2544
20.4105,2519
20.5083,2413
20.6061,2462
20.7039,2408
20.8017,2491
20.8995,2419
20.9973,2371
21.0951,2341
21.1929,2417
21.2907,2378
21.3884,2263
21.4862,2287
21.584,2292
21.6818,2222
21.7796,2354
21.8774,2319
21.9752,2320
22.073,2306
22.1708,2380
22.2686,2376
22.3664,2548
22.4642,2657
22.562,2811
22.6598,2895
22.7576,3038
22.8554,3185
22.9532,2998
23.051,3044
23.1488,2841
23.2466,2935
23.3444,2768
23.4422,2809
23.54,3018
23.6378,2809
23.7356,2950
23.8334,2831
23.9312,2854
24.029,2807
24.1268,2790
24.2246,2777
24.3224,2770
24.4202,2814
24.518,2829
24.6158,2848
24.7136,2863
24.8114,2692
24.9092,2769
25.007,2749
25.1048,2834
25.2026,2759
25.3004,2770
25.3982,2778
25.496,2743
25.5938,2743
25.6916,2776
25.7894,2702
25.8872,2789
25.985,2811
26.0828,2847
26.1805,2790
26.2783,2795
26.3761,2866
26.4739,2858
26.5717,2837
26.6695,2909
26.7673,2920
26.8651,2942
26.9629,2951
27.0607,3021
27.1585,3113
27.2563,3181
27.3541,3157
27.4519,3255
27.5497,3411
27.6475,3627
27.7453,3652
27.8431,3976
27.9409,4188
28.0387,4559
28.1365,5091
28.2343,5854
28.3321,6834
28.4299,8293
28.5277,10756
28.6255,13614
28.7233,14646
28.8211,13406
28.9189,10728
29.0167,8876
29.1145,7738
29.2123,6921
29.3101,6298
29.4079,5876
29.5057,5443
29.6035,5348
29.7013,5171
29.7991,5054
29.8969,4886
29.9947,4780