File: clay-plate-XRD-S2-2022/ENVT4461 S-15 Heated-400.csv
"Angle","Counts"
3.00243,26794
3.10023,24554
3.19803,23353
3.29583,21630
3.39363,20279
3.49142,19194
3.58922,18234
3.68702,17237
3.78482,16410
3.88261,15985
3.98041,14922
4.07821,14551
4.17601,13979
4.27381,13569
4.3716,13179
4.4694,12673
4.5672,12542
4.665,12275
4.7628,11981
4.86059,11933
4.95839,11534
5.05619,11649
5.15399,11351
5.25179,11125
5.34958,11238
5.44738,10840
5.54518,10918
5.64298,10852
5.74078,10821
5.83857,10798
5.93637,10574
6.03417,10601
6.13197,10747
6.22977,10669
6.32756,10788
6.42536,10598
6.52316,10733
6.62096,10543
6.71876,10629
6.81655,10648
6.91435,10709
7.01215,10538
7.10995,10445
7.20775,10417
7.30554,10393
7.40334,10449
7.50114,10324
7.59894,10470
7.69674,10419
7.79453,10400
7.89233,10207
7.99013,10379
8.08793,10309
8.18573,10216
8.28352,10253
8.38132,10375
8.47912,10455
8.57692,10230
8.67471,10280
8.77251,10144
8.87031,10318
8.96811,10361
9.06591,10520
9.1637,10359
9.2615,10509
9.3593,10443
9.4571,10571
9.5549,10578
9.65269,10737
9.75049,11184
9.84829,11242
9.94609,11477
10.0439,10832
10.1417,10683
10.2395,10383
10.3373,9928
10.4351,9719
10.5329,9904
10.6307,9620
10.7285,9426
10.8263,9080
10.9241,9139
11.0219,8738
11.1197,8923
11.2175,8876
11.3153,8690
11.4131,8531
11.5109,8443
11.6087,8294
11.7065,8181
11.8042,8314
11.902,8298
11.9998,8237
12.0976,8126
12.1954,8123
12.2932,8195
12.391,8075
12.4888,8267
12.5866,8434
12.6844,8455
12.7822,8642
12.88,8586
12.9778,8974
13.0756,9016
13.1734,9422
13.2712,10107
13.369,10876
13.4668,12118
13.5646,13701
13.6624,15975
13.7602,19545
13.858,24000
13.9558,28327
14.0536,29947
14.1514,23381
14.2492,14983
14.347,10905
14.4448,8600
14.5426,7173
14.6404,6299
14.7382,5745
14.836,5218
14.9338,4971
15.0316,4608
15.1294,4318
15.2272,4124
15.325,3956
15.4228,3874
15.5206,3632
15.6184,3650
15.7162,3543
15.814,3400
15.9118,3373
16.0096,3246
16.1074,3246
16.2052,3198
16.303,3173
16.4008,3126
16.4986,3184
16.5963,3025
16.6941,2997
16.7919,2885
16.8897,3019
16.9875,2875
17.0853,2901
17.1831,2815
17.2809,2828
17.3787,2749
17.4765,2749
17.5743,2753
17.6721,2729
17.7699,2676
17.8677,2639
17.9655,2802
18.0633,2673
18.1611,2655
18.2589,2622
18.3567,2686
18.4545,2532
18.5523,2716
18.6501,2540
18.7479,2607
18.8457,2643
18.9435,2605
19.0413,2584
19.1391,2597
19.2369,2607
19.3347,2516
19.4325,2602
19.5303,2500
19.6281,2480
19.7259,2488
19.8237,2543
19.9215,2631
20.0193,2605
20.1171,2722
20.2149,2777
20.3127,2875
20.4105,2780
20.5083,2802
20.6061,2541
20.7039,2636
20.8017,2604
20.8995,2498
20.9973,2581
21.0951,2434
21.1929,2511
21.2907,2490
21.3884,2434
21.4862,2456
21.584,2432
21.6818,2471
21.7796,2393
21.8774,2480
21.9752,2542
22.073,2450
22.1708,2497
22.2686,2532
22.3664,2615
22.4642,2749
22.562,2851
22.6598,3145
22.7576,3272
22.8554,3396
22.9532,3372
23.051,3292
23.1488,3123
23.2466,3100
23.3444,3158
23.4422,3159
23.54,3062
23.6378,3060
23.7356,3107
23.8334,3023
23.9312,3030
24.029,2986
24.1268,3029
24.2246,3041
24.3224,2933
24.4202,2881
24.518,2964
24.6158,2920
24.7136,2975
24.8114,2864
24.9092,2811
25.007,2872
25.1048,2829
25.2026,2853
25.3004,2892
25.3982,2869
25.496,2830
25.5938,2920
25.6916,2880
25.7894,2900
25.8872,3033
25.985,2948
26.0828,2983
26.1805,2901
26.2783,2936
26.3761,2940
26.4739,3061
26.5717,3034
26.6695,3068
26.7673,3132
26.8651,3210
26.9629,3164
27.0607,3351
27.1585,3262
27.2563,3460
27.3541,3551
27.4519,3588
27.5497,3749
27.6475,4008
27.7453,4240
27.8431,4426
27.9409,4626
28.0387,5257
28.1365,5698
28.2343,6718
28.3321,8385
28.4299,10331
28.5277,14445
28.6255,19843
28.7233,21510
28.8211,16729
28.9189,12730
29.0167,10425
29.1145,9254
29.2123,8052
29.3101,7454
29.4079,6998
29.5057,6506
29.6035,6145
29.7013,6058
29.7991,5603
29.8969,5576
29.9947,5491