File: clay-plate-XRD-S2-2022/ENVT4461 S-01 Mg.csv
"Angle","Counts"
3.00243,25462
3.10023,22972
3.19803,20955
3.29583,18928
3.39363,17424
3.49142,15877
3.58922,14484
3.68702,13554
3.78482,12297
3.88261,11223
3.98041,10405
4.07821,9529
4.17601,8749
4.27381,8056
4.3716,7413
4.4694,6867
4.5672,6323
4.665,5923
4.7628,5266
4.86059,5007
4.95839,4677
5.05619,4480
5.15399,4046
5.25179,3786
5.34958,3684
5.44738,3517
5.54518,3310
5.64298,3185
5.74078,3094
5.83857,3017
5.93637,3025
6.03417,2930
6.13197,2956
6.22977,2843
6.32756,2932
6.42536,2862
6.52316,2857
6.62096,2832
6.71876,2968
6.81655,2898
6.91435,2936
7.01215,2893
7.10995,2855
7.20775,2750
7.30554,2867
7.40334,2752
7.50114,2767
7.59894,2718
7.69674,2700
7.79453,2675
7.89233,2687
7.99013,2597
8.08793,2560
8.18573,2554
8.28352,2637
8.38132,2680
8.47912,2574
8.57692,2596
8.67471,2562
8.77251,2632
8.87031,2577
8.96811,2557
9.06591,2561
9.1637,2574
9.2615,2625
9.3593,2669
9.4571,2698
9.5549,2751
9.65269,2714
9.75049,2753
9.84829,2938
9.94609,2922
10.0439,2729
10.1417,2718
10.2395,2735
10.3373,2807
10.4351,2755
10.5329,2777
10.6307,2594
10.7285,2727
10.8263,2746
10.9241,2819
11.0219,2934
11.1197,2908
11.2175,3138
11.3153,3576
11.4131,3576
11.5109,2871
11.6087,2775
11.7065,2913
11.8042,2889
11.902,2831
11.9998,2853
12.0976,2803
12.1954,2861
12.2932,2918
12.391,2986
12.4888,2932
12.5866,2972
12.6844,3065
12.7822,2957
12.88,3109
12.9778,3107
13.0756,3381
13.1734,3385
13.2712,3532
13.369,3534
13.4668,3874
13.5646,4065
13.6624,4494
13.7602,4872
13.858,5487
13.9558,6058
14.0536,5187
14.1514,4122
14.2492,3547
14.347,3216
14.4448,2989
14.5426,2872
14.6404,2851
14.7382,2768
14.836,2578
14.9338,2491
15.0316,2548
15.1294,2559
15.2272,2539
15.325,2510
15.4228,2510
15.5206,2576
15.6184,2705
15.7162,2702
15.814,2936
15.9118,3577
16.0096,4808
16.1074,8428
16.2052,15348
16.303,16932
16.4008,3934
16.4986,3001
16.5963,2876
16.6941,2905
16.7919,3174
16.8897,3393
16.9875,2726
17.0853,2459
17.1831,2392
17.2809,2263
17.3787,2257
17.4765,2303
17.5743,2232
17.6721,2272
17.7699,2259
17.8677,2220
17.9655,2141
18.0633,2278
18.1611,2213
18.2589,2170
18.3567,2145
18.4545,2144
18.5523,2145
18.6501,2231
18.7479,2194
18.8457,2065
18.9435,2026
19.0413,2003
19.1391,2110
19.2369,2190
19.3347,2153
19.4325,2032
19.5303,2029
19.6281,2084
19.7259,2002
19.8237,1997
19.9215,2139
20.0193,2047
20.1171,2083
20.2149,2063
20.3127,2142
20.4105,2075
20.5083,2039
20.6061,2078
20.7039,2135
20.8017,2153
20.8995,2314
20.9973,2074
21.0951,2071
21.1929,2030
21.2907,2003
21.3884,1998
21.4862,2146
21.584,2027
21.6818,2043
21.7796,2001
21.8774,2007
21.9752,2012
22.073,2022
22.1708,1917
22.2686,2156
22.3664,2204
22.4642,2325
22.562,2451
22.6598,2750
22.7576,3129
22.8554,3635
22.9532,5160
23.051,4068
23.1488,2878
23.2466,2803
23.3444,2710
23.4422,2698
23.54,2687
23.6378,2827
23.7356,3279
23.8334,4112
23.9312,3566
24.029,2754
24.1268,2708
24.2246,2562
24.3224,2587
24.4202,2680
24.518,2680
24.6158,2783
24.7136,2659
24.8114,2685
24.9092,3013
25.007,3390
25.1048,3781
25.2026,3620
25.3004,2973
25.3982,2534
25.496,2414
25.5938,2424
25.6916,2428
25.7894,2349
25.8872,2443
25.985,3053
26.0828,4330
26.1805,2820
26.2783,2340
26.3761,2317
26.4739,2221
26.5717,2189
26.6695,2239
26.7673,2088
26.8651,2221
26.9629,2248
27.0607,2394
27.1585,2238
27.2563,2234
27.3541,2323
27.4519,2483
27.5497,2449
27.6475,2683
27.7453,2735
27.8431,2649
27.9409,2574
28.0387,2730
28.1365,2638
28.2343,2709
28.3321,2914
28.4299,3475
28.5277,3781
28.6255,4170
28.7233,3696
28.8211,3089
28.9189,2864
29.0167,2745
29.1145,2568
29.2123,2375
29.3101,2360
29.4079,2287
29.5057,2280
29.6035,2268
29.7013,2160
29.7991,2290
29.8969,2176
29.9947,2231