File: clay-plate-XRD-S2-2022/ENVT4461 S-01 Mg+Gly.csv
"Angle","Counts"
3.00243,27470
3.10023,24763
3.19803,22695
3.29583,20470
3.39363,18604
3.49142,17105
3.58922,15520
3.68702,14372
3.78482,12867
3.88261,11902
3.98041,10902
4.07821,10178
4.17601,9186
4.27381,8449
4.3716,7762
4.4694,7088
4.5672,6697
4.665,6210
4.7628,5585
4.86059,5176
4.95839,4957
5.05619,4552
5.15399,4289
5.25179,4191
5.34958,3780
5.44738,3547
5.54518,3391
5.64298,3160
5.74078,3083
5.83857,3053
5.93637,2917
6.03417,2979
6.13197,2946
6.22977,2838
6.32756,2821
6.42536,2818
6.52316,2800
6.62096,2783
6.71876,2747
6.81655,2813
6.91435,2793
7.01215,2698
7.10995,2651
7.20775,2713
7.30554,2747
7.40334,2686
7.50114,2643
7.59894,2560
7.69674,2597
7.79453,2565
7.89233,2515
7.99013,2557
8.08793,2531
8.18573,2478
8.28352,2558
8.38132,2570
8.47912,2598
8.57692,2682
8.67471,2540
8.77251,2642
8.87031,2637
8.96811,2650
9.06591,2587
9.1637,2622
9.2615,2563
9.3593,2663
9.4571,2695
9.5549,2640
9.65269,2671
9.75049,2894
9.84829,2790
9.94609,2748
10.0439,2680
10.1417,2576
10.2395,2643
10.3373,2524
10.4351,2656
10.5329,2618
10.6307,2615
10.7285,2721
10.8263,2782
10.9241,2825
11.0219,2867
11.1197,2830
11.2175,3186
11.3153,3490
11.4131,3454
11.5109,2810
11.6087,2859
11.7065,2751
11.8042,2784
11.902,2841
11.9998,2796
12.0976,2929
12.1954,2754
12.2932,2848
12.391,2933
12.4888,2901
12.5866,2940
12.6844,2901
12.7822,2870
12.88,2946
12.9778,2997
13.0756,3128
13.1734,3267
13.2712,3244
13.369,3525
13.4668,3616
13.5646,3869
13.6624,4344
13.7602,4777
13.858,5387
13.9558,5491
14.0536,4830
14.1514,3761
14.2492,3381
14.347,3073
14.4448,2865
14.5426,2774
14.6404,2753
14.7382,2680
14.836,2630
14.9338,2618
15.0316,2487
15.1294,2426
15.2272,2410
15.325,2478
15.4228,2549
15.5206,2444
15.6184,2547
15.7162,2619
15.814,2911
15.9118,3470
16.0096,4609
16.1074,7871
16.2052,14535
16.303,13643
16.4008,3533
16.4986,2896
16.5963,2766
16.6941,2872
16.7919,3110
16.8897,3023
16.9875,2620
17.0853,2280
17.1831,2295
17.2809,2211
17.3787,2184
17.4765,2176
17.5743,2150
17.6721,2173
17.7699,2105
17.8677,2091
17.9655,2132
18.0633,2159
18.1611,2078
18.2589,2055
18.3567,1984
18.4545,1966
18.5523,2228
18.6501,2142
18.7479,1997
18.8457,2012
18.9435,1991
19.0413,2040
19.1391,1996
19.2369,1996
19.3347,2161
19.4325,1982
19.5303,1928
19.6281,1932
19.7259,2023
19.8237,1992
19.9215,1915
20.0193,2045
20.1171,1993
20.2149,1989
20.3127,2084
20.4105,2003
20.5083,1962
20.6061,2025
20.7039,2019
20.8017,2121
20.8995,2269
20.9973,2141
21.0951,2024
21.1929,2022
21.2907,1944
21.3884,2025
21.4862,2030
21.584,2096
21.6818,1967
21.7796,1973
21.8774,2010
21.9752,2016
22.073,2053
22.1708,1998
22.2686,2002
22.3664,2118
22.4642,2141
22.562,2323
22.6598,2649
22.7576,2829
22.8554,3339
22.9532,4591
23.051,3453
23.1488,2714
23.2466,2720
23.3444,2536
23.4422,2454
23.54,2676
23.6378,2712
23.7356,3463
23.8334,5053
23.9312,4175
24.029,2794
24.1268,2497
24.2246,2443
24.3224,2452
24.4202,2426
24.518,2564
24.6158,2513
24.7136,2593
24.8114,2885
24.9092,3268
25.007,4128
25.1048,4644
25.2026,4568
25.3004,3368
25.3982,2643
25.496,2408
25.5938,2416
25.6916,2335
25.7894,2331
25.8872,2420
25.985,2911
26.0828,3895
26.1805,2607
26.2783,2141
26.3761,2144
26.4739,2079
26.5717,2154
26.6695,2130
26.7673,2111
26.8651,2182
26.9629,2257
27.0607,2481
27.1585,2364
27.2563,2180
27.3541,2242
27.4519,2344
27.5497,2444
27.6475,2534
27.7453,2512
27.8431,2545
27.9409,2406
28.0387,2549
28.1365,2494
28.2343,2535
28.3321,2735
28.4299,3027
28.5277,3382
28.6255,3502
28.7233,3085
28.8211,2686
28.9189,2537
29.0167,2419
29.1145,2427
29.2123,2192
29.3101,2233
29.4079,2112
29.5057,2263
29.6035,2347
29.7013,2082
29.7991,2139
29.8969,2157
29.9947,2139