File: clay-plate-XRD-S2-2022/ENVT4461 S-15 Heated-550.csv
"Angle","Counts"
3.00243,28209
3.10023,26408
3.19803,24148
3.29583,22229
3.39363,20977
3.49142,19491
3.58922,17990
3.68702,17118
3.78482,16070
3.88261,14846
3.98041,13948
4.07821,13618
4.17601,12762
4.27381,12004
4.3716,11218
4.4694,11068
4.5672,10427
4.665,10052
4.7628,9721
4.86059,9461
4.95839,9220
5.05619,9201
5.15399,8789
5.25179,8657
5.34958,8435
5.44738,8270
5.54518,8326
5.64298,8377
5.74078,8195
5.83857,8307
5.93637,8284
6.03417,8272
6.13197,8273
6.22977,8453
6.32756,8407
6.42536,8230
6.52316,8454
6.62096,8596
6.71876,8706
6.81655,8825
6.91435,8553
7.01215,8682
7.10995,8796
7.20775,8788
7.30554,8738
7.40334,8674
7.50114,8839
7.59894,8824
7.69674,8962
7.79453,8898
7.89233,8987
7.99013,9201
8.08793,9192
8.18573,9248
8.28352,9189
8.38132,9408
8.47912,9409
8.57692,9307
8.67471,9455
8.77251,9404
8.87031,9579
8.96811,9573
9.06591,9618
9.1637,9848
9.2615,9913
9.3593,9859
9.4571,9900
9.5549,10148
9.65269,10362
9.75049,10597
9.84829,10766
9.94609,10767
10.0439,10729
10.1417,10173
10.2395,9556
10.3373,9380
10.4351,8799
10.5329,8581
10.6307,8435
10.7285,7933
10.8263,7565
10.9241,7110
11.0219,6735
11.1197,6696
11.2175,6371
11.3153,5953
11.4131,5706
11.5109,5741
11.6087,5318
11.7065,5031
11.8042,4912
11.902,4656
11.9998,4457
12.0976,4258
12.1954,4121
12.2932,3955
12.391,3968
12.4888,3872
12.5866,3701
12.6844,3673
12.7822,3488
12.88,3525
12.9778,3379
13.0756,3390
13.1734,3340
13.2712,3291
13.369,3263
13.4668,3199
13.5646,3066
13.6624,3062
13.7602,3111
13.858,3169
13.9558,2990
14.0536,2973
14.1514,2956
14.2492,3082
14.347,2976
14.4448,2979
14.5426,3066
14.6404,2921
14.7382,2990
14.836,3001
14.9338,3036
15.0316,2964
15.1294,2968
15.2272,3017
15.325,2900
15.4228,2954
15.5206,2913
15.6184,3045
15.7162,2973
15.814,2913
15.9118,2979
16.0096,2955
16.1074,2892
16.2052,2935
16.303,2877
16.4008,2854
16.4986,2975
16.5963,2983
16.6941,2808
16.7919,2890
16.8897,2879
16.9875,2881
17.0853,2847
17.1831,2905
17.2809,2987
17.3787,2944
17.4765,2935
17.5743,2801
17.6721,2948
17.7699,2931
17.8677,2967
17.9655,2818
18.0633,2912
18.1611,2942
18.2589,2840
18.3567,2945
18.4545,2970
18.5523,2933
18.6501,2984
18.7479,3053
18.8457,2958
18.9435,2986
19.0413,3088
19.1391,3136
19.2369,3163
19.3347,3015
19.4325,3073
19.5303,3158
19.6281,3121
19.7259,3231
19.8237,3147
19.9215,3184
20.0193,3380
20.1171,3440
20.2149,3380
20.3127,3575
20.4105,3474
20.5083,3330
20.6061,3236
20.7039,3149
20.8017,3188
20.8995,3220
20.9973,3201
21.0951,3282
21.1929,3281
21.2907,3275
21.3884,3209
21.4862,3144
21.584,3194
21.6818,3052
21.7796,3124
21.8774,3119
21.9752,3235
22.073,3168
22.1708,3214
22.2686,3226
22.3664,3241
22.4642,3259
22.562,3424
22.6598,3489
22.7576,3534
22.8554,3611
22.9532,3605
23.051,3544
23.1488,3499
23.2466,3471
23.3444,3680
23.4422,3472
23.54,3509
23.6378,3573
23.7356,3390
23.8334,3546
23.9312,3683
24.029,3590
24.1268,3482
24.2246,3432
24.3224,3348
24.4202,3387
24.518,3301
24.6158,3364
24.7136,3445
24.8114,3398
24.9092,3408
25.007,3384
25.1048,3295
25.2026,3367
25.3004,3429
25.3982,3439
25.496,3469
25.5938,3401
25.6916,3387
25.7894,3432
25.8872,3386
25.985,3355
26.0828,3411
26.1805,3394
26.2783,3478
26.3761,3274
26.4739,3406
26.5717,3427
26.6695,3534
26.7673,3415
26.8651,3451
26.9629,3338
27.0607,3415
27.1585,3410
27.2563,3395
27.3541,3394
27.4519,3457
27.5497,3446
27.6475,3362
27.7453,3401
27.8431,3420
27.9409,3366
28.0387,3444
28.1365,3416
28.2343,3398
28.3321,3284
28.4299,3488
28.5277,3478
28.6255,3558
28.7233,3608
28.8211,3481
28.9189,3628
29.0167,3683
29.1145,3696
29.2123,3927
29.3101,3951
29.4079,3952
29.5057,3807
29.6035,3924
29.7013,3992
29.7991,3945
29.8969,4110
29.9947,4231