File: clay-plate-XRD-S2-2022/ENVT4461 S-13 Heated-550.csv
"Angle","Counts"
3.00243,24882
3.10023,22316
3.19803,20636
3.29583,18552
3.39363,17068
3.49142,15876
3.58922,14722
3.68702,13451
3.78482,12568
3.88261,11688
3.98041,10873
4.07821,10231
4.17601,9681
4.27381,9102
4.3716,8549
4.4694,8218
4.5672,7735
4.665,7441
4.7628,7050
4.86059,6606
4.95839,6502
5.05619,6302
5.15399,6145
5.25179,6062
5.34958,6027
5.44738,5752
5.54518,5762
5.64298,5625
5.74078,5620
5.83857,5533
5.93637,5629
6.03417,5674
6.13197,5599
6.22977,5706
6.32756,5826
6.42536,5741
6.52316,5861
6.62096,5955
6.71876,5941
6.81655,5993
6.91435,5901
7.01215,6077
7.10995,6135
7.20775,6112
7.30554,6198
7.40334,6118
7.50114,6404
7.59894,6249
7.69674,6371
7.79453,6457
7.89233,6303
7.99013,6477
8.08793,6358
8.18573,6634
8.28352,6762
8.38132,6627
8.47912,6818
8.57692,6655
8.67471,6888
8.77251,6763
8.87031,6944
8.96811,6801
9.06591,6997
9.1637,7216
9.2615,7213
9.3593,7448
9.4571,7590
9.5549,7725
9.65269,8184
9.75049,8644
9.84829,8729
9.94609,8443
10.0439,7600
10.1417,7306
10.2395,7024
10.3373,6862
10.4351,6647
10.5329,6397
10.6307,6320
10.7285,5893
10.8263,5649
10.9241,5633
11.0219,5340
11.1197,5273
11.2175,4935
11.3153,4842
11.4131,4748
11.5109,4489
11.6087,4372
11.7065,4311
11.8042,4140
11.902,4052
11.9998,3908
12.0976,3884
12.1954,3784
12.2932,3634
12.391,3677
12.4888,3561
12.5866,3536
12.6844,3361
12.7822,3428
12.88,3480
12.9778,3422
13.0756,3269
13.1734,3120
13.2712,3267
13.369,3274
13.4668,3234
13.5646,3164
13.6624,3130
13.7602,3145
13.858,3069
13.9558,3049
14.0536,3017
14.1514,3165
14.2492,3046
14.347,3066
14.4448,3011
14.5426,3076
14.6404,3017
14.7382,3047
14.836,3078
14.9338,3097
15.0316,2943
15.1294,2962
15.2272,3029
15.325,2976
15.4228,2966
15.5206,2929
15.6184,2941
15.7162,2982
15.814,2996
15.9118,2839
16.0096,2910
16.1074,2909
16.2052,2791
16.303,2929
16.4008,2933
16.4986,2984
16.5963,3023
16.6941,2870
16.7919,2900
16.8897,2901
16.9875,2895
17.0853,2801
17.1831,2876
17.2809,2875
17.3787,2907
17.4765,3029
17.5743,2948
17.6721,2887
17.7699,2974
17.8677,3025
17.9655,2871
18.0633,3000
18.1611,2982
18.2589,2900
18.3567,2902
18.4545,2982
18.5523,2950
18.6501,2976
18.7479,2972
18.8457,2908
18.9435,3041
19.0413,3022
19.1391,3052
19.2369,3106
19.3347,3019
19.4325,3126
19.5303,3057
19.6281,3150
19.7259,3165
19.8237,3144
19.9215,3490
20.0193,3489
20.1171,3535
20.2149,3482
20.3127,3523
20.4105,3256
20.5083,3314
20.6061,3240
20.7039,3151
20.8017,3145
20.8995,3150
20.9973,3147
21.0951,3130
21.1929,3120
21.2907,3139
21.3884,3114
21.4862,3218
21.584,3154
21.6818,3059
21.7796,3077
21.8774,3097
21.9752,3274
22.073,3156
22.1708,3083
22.2686,3251
22.3664,3276
22.4642,3427
22.562,3460
22.6598,3549
22.7576,3566
22.8554,3575
22.9532,3339
23.051,3503
23.1488,3453
23.2466,3393
23.3444,3463
23.4422,3491
23.54,3458
23.6378,3468
23.7356,3518
23.8334,3731
23.9312,3652
24.029,3375
24.1268,3438
24.2246,3493
24.3224,3287
24.4202,3378
24.518,3429
24.6158,3341
24.7136,3434
24.8114,3351
24.9092,3473
25.007,3545
25.1048,3520
25.2026,3509
25.3004,3545
25.3982,3414
25.496,3495
25.5938,3421
25.6916,3432
25.7894,3366
25.8872,3496
25.985,3316
26.0828,3368
26.1805,3343
26.2783,3316
26.3761,3271
26.4739,3203
26.5717,3289
26.6695,3273
26.7673,3345
26.8651,3341
26.9629,3302
27.0607,3305
27.1585,3361
27.2563,3345
27.3541,3416
27.4519,3431
27.5497,3445
27.6475,3287
27.7453,3447
27.8431,3347
27.9409,3282
28.0387,3357
28.1365,3246
28.2343,3357
28.3321,3397
28.4299,3341
28.5277,3437
28.6255,3462
28.7233,3408
28.8211,3542
28.9189,3571
29.0167,3842
29.1145,3945
29.2123,3854
29.3101,3574
29.4079,3677
29.5057,3747
29.6035,3615
29.7013,3774
29.7991,3781
29.8969,3960
29.9947,4039