File: clay-plate-XRD-S2-2022/ENVT4461 S-13 Mg+Gly EY.csv
"Angle","Counts"
3.00243,26249
3.10023,23483
3.19803,21746
3.29583,19486
3.39363,18319
3.49142,16973
3.58922,15874
3.68702,14716
3.78482,13460
3.88261,12790
3.98041,11907
4.07821,11582
4.17601,10778
4.27381,10649
4.3716,9720
4.4694,9428
4.5672,9027
4.665,8808
4.7628,8855
4.86059,8426
4.95839,8258
5.05619,8509
5.15399,8134
5.25179,7997
5.34958,7932
5.44738,7885
5.54518,7856
5.64298,7890
5.74078,7967
5.83857,7951
5.93637,8181
6.03417,8133
6.13197,8183
6.22977,8254
6.32756,8312
6.42536,8351
6.52316,8270
6.62096,8100
6.71876,8315
6.81655,8291
6.91435,8032
7.01215,8171
7.10995,8079
7.20775,7844
7.30554,7781
7.40334,7682
7.50114,7723
7.59894,7545
7.69674,7264
7.79453,7359
7.89233,6997
7.99013,7066
8.08793,6786
8.18573,6886
8.28352,6739
8.38132,6605
8.47912,6414
8.57692,6599
8.67471,6524
8.77251,6233
8.87031,6424
8.96811,6276
9.06591,6352
9.1637,6201
9.2615,6282
9.3593,6399
9.4571,6335
9.5549,6619
9.65269,6767
9.75049,6923
9.84829,7270
9.94609,6909
10.0439,6517
10.1417,6236
10.2395,6114
10.3373,5870
10.4351,5982
10.5329,5837
10.6307,5827
10.7285,5675
10.8263,5678
10.9241,5586
11.0219,5588
11.1197,5709
11.2175,5550
11.3153,5546
11.4131,5392
11.5109,5746
11.6087,5492
11.7065,5686
11.8042,5578
11.902,5758
11.9998,5814
12.0976,5903
12.1954,5922
12.2932,5991
12.391,6011
12.4888,6153
12.5866,6523
12.6844,6528
12.7822,6626
12.88,6773
12.9778,7045
13.0756,7596
13.1734,7852
13.2712,8813
13.369,9318
13.4668,10723
13.5646,12654
13.6624,15764
13.7602,20114
13.858,25850
13.9558,29768
14.0536,25118
14.1514,15086
14.2492,10150
14.347,7758
14.4448,6369
14.5426,5550
14.6404,5074
14.7382,4693
14.836,4442
14.9338,4255
15.0316,4110
15.1294,3885
15.2272,3720
15.325,3587
15.4228,3525
15.5206,3395
15.6184,3345
15.7162,3178
15.814,3183
15.9118,3210
16.0096,3115
16.1074,3087
16.2052,3098
16.303,2915
16.4008,2853
16.4986,2910
16.5963,2759
16.6941,2879
16.7919,2857
16.8897,2739
16.9875,2807
17.0853,2852
17.1831,2736
17.2809,2763
17.3787,2748
17.4765,2778
17.5743,2658
17.6721,2661
17.7699,2613
17.8677,2711
17.9655,2594
18.0633,2656
18.1611,2561
18.2589,2540
18.3567,2544
18.4545,2626
18.5523,2555
18.6501,2634
18.7479,2645
18.8457,2547
18.9435,2568
19.0413,2539
19.1391,2605
19.2369,2671
19.3347,2546
19.4325,2436
19.5303,2554
19.6281,2476
19.7259,2614
19.8237,2587
19.9215,2687
20.0193,2780
20.1171,2835
20.2149,2926
20.3127,3006
20.4105,2868
20.5083,2766
20.6061,2808
20.7039,2682
20.8017,2676
20.8995,2896
20.9973,2777
21.0951,2630
21.1929,2622
21.2907,2497
21.3884,2611
21.4862,2460
21.584,2585
21.6818,2664
21.7796,2529
21.8774,2575
21.9752,2564
22.073,2569
22.1708,2624
22.2686,2654
22.3664,2761
22.4642,2873
22.562,3075
22.6598,3301
22.7576,3511
22.8554,3578
22.9532,3349
23.051,3353
23.1488,3368
23.2466,3384
23.3444,3181
23.4422,3125
23.54,3291
23.6378,3224
23.7356,3245
23.8334,3498
23.9312,3408
24.029,3240
24.1268,3373
24.2246,3355
24.3224,3421
24.4202,3322
24.518,3425
24.6158,3337
24.7136,3190
24.8114,3135
24.9092,3128
25.007,3255
25.1048,3218
25.2026,3171
25.3004,3084
25.3982,3011
25.496,3017
25.5938,3026
25.6916,3024
25.7894,3237
25.8872,3146
25.985,3008
26.0828,3120
26.1805,2998
26.2783,3035
26.3761,3020
26.4739,3010
26.5717,3100
26.6695,3188
26.7673,3154
26.8651,3205
26.9629,3272
27.0607,3308
27.1585,3359
27.2563,3489
27.3541,3439
27.4519,3542
27.5497,3774
27.6475,3848
27.7453,4280
27.8431,4538
27.9409,4948
28.0387,5490
28.1365,6268
28.2343,7089
28.3321,9269
28.4299,12774
28.5277,18539
28.6255,22811
28.7233,17784
28.8211,12165
28.9189,9501
29.0167,8153
29.1145,7221
29.2123,6453
29.3101,5997
29.4079,5501
29.5057,5143
29.6035,4872
29.7013,4807
29.7991,4678
29.8969,4536
29.9947,4454