File: clay-plate-XRD-S2-2022/ENVT4461 S-16 Mg EY 8mins.csv
"Angle","Counts"
3.00243,25900
3.10023,23506
3.19803,21315
3.29583,19116
3.39363,17592
3.49142,16609
3.58922,14992
3.68702,14341
3.78482,13491
3.88261,12477
3.98041,11926
4.07821,11497
4.17601,10969
4.27381,10814
4.3716,10208
4.4694,10144
4.5672,10090
4.665,9939
4.7628,9840
4.86059,9690
4.95839,10042
5.05619,9962
5.15399,9935
5.25179,10243
5.34958,10695
5.44738,10586
5.54518,10622
5.64298,11070
5.74078,11277
5.83857,11178
5.93637,11316
6.03417,11503
6.13197,11895
6.22977,12268
6.32756,12190
6.42536,12053
6.52316,12252
6.62096,11918
6.71876,12043
6.81655,11975
6.91435,11766
7.01215,11747
7.10995,11544
7.20775,11497
7.30554,11264
7.40334,11146
7.50114,10894
7.59894,10764
7.69674,10614
7.79453,10252
7.89233,10371
7.99013,10069
8.08793,9875
8.18573,9989
8.28352,9805
8.38132,9628
8.47912,9616
8.57692,9431
8.67471,9364
8.77251,9429
8.87031,9243
8.96811,9077
9.06591,9012
9.1637,8998
9.2615,9000
9.3593,8949
9.4571,9186
9.5549,9173
9.65269,9352
9.75049,9445
9.84829,9472
9.94609,9212
10.0439,8849
10.1417,8653
10.2395,8105
10.3373,8181
10.4351,8058
10.5329,8054
10.6307,7918
10.7285,7702
10.8263,7561
10.9241,7448
11.0219,7529
11.1197,7424
11.2175,7592
11.3153,7372
11.4131,7096
11.5109,7299
11.6087,7258
11.7065,7300
11.8042,7255
11.902,7254
11.9998,7317
12.0976,7484
12.1954,7557
12.2932,7440
12.391,7741
12.4888,7683
12.5866,8050
12.6844,8255
12.7822,8563
12.88,8935
12.9778,9346
13.0756,9691
13.1734,10609
13.2712,11248
13.369,12578
13.4668,14489
13.5646,16882
13.6624,20471
13.7602,25354
13.858,31010
13.9558,33840
14.0536,27826
14.1514,18502
14.2492,12855
14.347,9977
14.4448,8017
14.5426,6594
14.6404,6081
14.7382,5637
14.836,5052
14.9338,4907
15.0316,4582
15.1294,4336
15.2272,4047
15.325,3990
15.4228,3805
15.5206,3711
15.6184,3602
15.7162,3637
15.814,3445
15.9118,3441
16.0096,3563
16.1074,3443
16.2052,3231
16.303,3166
16.4008,3017
16.4986,3053
16.5963,3084
16.6941,2959
16.7919,2937
16.8897,2939
16.9875,2893
17.0853,2940
17.1831,2890
17.2809,2891
17.3787,2806
17.4765,2860
17.5743,2839
17.6721,2743
17.7699,2740
17.8677,2813
17.9655,2692
18.0633,2751
18.1611,2836
18.2589,2714
18.3567,2604
18.4545,2775
18.5523,2630
18.6501,2763
18.7479,2673
18.8457,2686
18.9435,2741
19.0413,2709
19.1391,2790
19.2369,2655
19.3347,2709
19.4325,2865
19.5303,2697
19.6281,2792
19.7259,2784
19.8237,2772
19.9215,2944
20.0193,2879
20.1171,2949
20.2149,2969
20.3127,2908
20.4105,2917
20.5083,2726
20.6061,2764
20.7039,2606
20.8017,2724
20.8995,2750
20.9973,2622
21.0951,2593
21.1929,2478
21.2907,2482
21.3884,2475
21.4862,2452
21.584,2533
21.6818,2379
21.7796,2355
21.8774,2510
21.9752,2432
22.073,2409
22.1708,2478
22.2686,2473
22.3664,2707
22.4642,2769
22.562,2829
22.6598,2870
22.7576,2833
22.8554,2981
22.9532,2847
23.051,2769
23.1488,2752
23.2466,2713
23.3444,2777
23.4422,2701
23.54,2678
23.6378,2760
23.7356,2794
23.8334,3049
23.9312,2946
24.029,2780
24.1268,2705
24.2246,2606
24.3224,2685
24.4202,2798
24.518,2674
24.6158,2707
24.7136,2634
24.8114,2743
24.9092,2830
25.007,2838
25.1048,2981
25.2026,2881
25.3004,2821
25.3982,2708
25.496,2746
25.5938,2707
25.6916,2843
25.7894,2843
25.8872,2814
25.985,2844
26.0828,2853
26.1805,2847
26.2783,2774
26.3761,2902
26.4739,2980
26.5717,3011
26.6695,2959
26.7673,2984
26.8651,3058
26.9629,3146
27.0607,3191
27.1585,3431
27.2563,3497
27.3541,3571
27.4519,3661
27.5497,4055
27.6475,4195
27.7453,4549
27.8431,4996
27.9409,5556
28.0387,6213
28.1365,7296
28.2343,8727
28.3321,11244
28.4299,15196
28.5277,20866
28.6255,24625
28.7233,20418
28.8211,14981
28.9189,11840
29.0167,10041
29.1145,8752
29.2123,7780
29.3101,7228
29.4079,6680
29.5057,6295
29.6035,6014
29.7013,5794
29.7991,5609
29.8969,5593
29.9947,5435