File: clay-plate-XRD-S2-2022/ENVT4461 S-15 Mg.csv
"Angle","Counts"
3.00243,25451
3.10023,23685
3.19803,21414
3.29583,20403
3.39363,19170
3.49142,17457
3.58922,16412
3.68702,15326
3.78482,14828
3.88261,13706
3.98041,13255
4.07821,12576
4.17601,11839
4.27381,11540
4.3716,10934
4.4694,10669
4.5672,10419
4.665,9913
4.7628,9701
4.86059,9667
4.95839,9459
5.05619,9179
5.15399,9096
5.25179,8987
5.34958,8817
5.44738,8829
5.54518,8744
5.64298,8685
5.74078,8697
5.83857,8536
5.93637,8485
6.03417,8423
6.13197,8328
6.22977,8523
6.32756,8361
6.42536,8595
6.52316,8194
6.62096,8243
6.71876,8167
6.81655,7857
6.91435,7904
7.01215,7817
7.10995,7768
7.20775,7674
7.30554,7685
7.40334,7424
7.50114,7501
7.59894,7349
7.69674,7484
7.79453,7395
7.89233,7145
7.99013,7165
8.08793,6976
8.18573,6952
8.28352,6876
8.38132,6781
8.47912,6870
8.57692,6739
8.67471,6707
8.77251,6721
8.87031,6640
8.96811,6813
9.06591,6624
9.1637,6585
9.2615,6672
9.3593,6753
9.4571,6725
9.5549,6817
9.65269,6956
9.75049,7068
9.84829,7255
9.94609,7158
10.0439,7065
10.1417,6679
10.2395,6586
10.3373,6370
10.4351,6342
10.5329,6347
10.6307,6202
10.7285,6207
10.8263,6006
10.9241,6012
11.0219,5895
11.1197,5933
11.2175,5955
11.3153,5836
11.4131,6017
11.5109,5833
11.6087,5973
11.7065,5894
11.8042,5767
11.902,6105
11.9998,5835
12.0976,5964
12.1954,6064
12.2932,5950
12.391,5984
12.4888,5956
12.5866,6045
12.6844,6176
12.7822,6208
12.88,6537
12.9778,6644
13.0756,6856
13.1734,7237
13.2712,7453
13.369,7937
13.4668,8742
13.5646,9537
13.6624,11254
13.7602,13179
13.858,15926
13.9558,18959
14.0536,19006
14.1514,14019
14.2492,9646
14.347,7037
14.4448,6062
14.5426,5244
14.6404,4677
14.7382,4523
14.836,4010
14.9338,3923
15.0316,3632
15.1294,3528
15.2272,3486
15.325,3411
15.4228,3279
15.5206,3120
15.6184,3119
15.7162,3083
15.814,3007
15.9118,2819
16.0096,2843
16.1074,2823
16.2052,2903
16.303,2707
16.4008,2812
16.4986,2661
16.5963,2744
16.6941,2644
16.7919,2579
16.8897,2669
16.9875,2689
17.0853,2556
17.1831,2566
17.2809,2462
17.3787,2652
17.4765,2569
17.5743,2616
17.6721,2478
17.7699,2400
17.8677,2482
17.9655,2453
18.0633,2475
18.1611,2502
18.2589,2360
18.3567,2574
18.4545,2469
18.5523,2454
18.6501,2380
18.7479,2372
18.8457,2384
18.9435,2359
19.0413,2343
19.1391,2471
19.2369,2377
19.3347,2355
19.4325,2453
19.5303,2426
19.6281,2398
19.7259,2368
19.8237,2429
19.9215,2421
20.0193,2443
20.1171,2465
20.2149,2496
20.3127,2501
20.4105,2484
20.5083,2447
20.6061,2367
20.7039,2380
20.8017,2362
20.8995,2321
20.9973,2483
21.0951,2368
21.1929,2218
21.2907,2253
21.3884,2233
21.4862,2257
21.584,2281
21.6818,2265
21.7796,2257
21.8774,2180
21.9752,2260
22.073,2286
22.1708,2293
22.2686,2339
22.3664,2425
22.4642,2600
22.562,2728
22.6598,2947
22.7576,3197
22.8554,3276
22.9532,3108
23.051,3012
23.1488,3055
23.2466,2969
23.3444,2823
23.4422,2882
23.54,2879
23.6378,2763
23.7356,2794
23.8334,2828
23.9312,2877
24.029,2753
24.1268,2804
24.2246,2781
24.3224,2869
24.4202,2836
24.518,2824
24.6158,2808
24.7136,2781
24.8114,2775
24.9092,2697
25.007,2730
25.1048,2711
25.2026,2721
25.3004,2702
25.3982,2720
25.496,2664
25.5938,2743
25.6916,2807
25.7894,2741
25.8872,2854
25.985,2750
26.0828,2701
26.1805,2776
26.2783,2699
26.3761,2765
26.4739,2815
26.5717,2887
26.6695,2862
26.7673,2812
26.8651,2934
26.9629,3010
27.0607,3032
27.1585,3059
27.2563,3026
27.3541,3134
27.4519,3175
27.5497,3311
27.6475,3335
27.7453,3563
27.8431,3815
27.9409,3994
28.0387,4272
28.1365,4758
28.2343,5355
28.3321,6270
28.4299,8006
28.5277,10624
28.6255,14433
28.7233,14704
28.8211,10954
28.9189,8618
29.0167,7185
29.1145,6438
29.2123,5886
29.3101,5286
29.4079,4975
29.5057,4899
29.6035,4572
29.7013,4454
29.7991,4259
29.8969,4086
29.9947,4170