File: clay-plate-XRD-S2-2022/ENVT4461 S-13 Heated-400.csv
"Angle","Counts"
3.00243,25343
3.10023,22655
3.19803,20553
3.29583,18706
3.39363,17115
3.49142,16089
3.58922,14772
3.68702,13593
3.78482,12535
3.88261,11491
3.98041,10960
4.07821,10150
4.17601,9635
4.27381,9054
4.3716,8659
4.4694,8274
4.5672,7795
4.665,7316
4.7628,7136
4.86059,6876
4.95839,6592
5.05619,6390
5.15399,6295
5.25179,6153
5.34958,6154
5.44738,6102
5.54518,5870
5.64298,5962
5.74078,5958
5.83857,5786
5.93637,5933
6.03417,5736
6.13197,5815
6.22977,6011
6.32756,6099
6.42536,6049
6.52316,5936
6.62096,6164
6.71876,6222
6.81655,6256
6.91435,6149
7.01215,6244
7.10995,6213
7.20775,6277
7.30554,6383
7.40334,6365
7.50114,6481
7.59894,6310
7.69674,6600
7.79453,6509
7.89233,6449
7.99013,6447
8.08793,6587
8.18573,6561
8.28352,6606
8.38132,6811
8.47912,6645
8.57692,6583
8.67471,6702
8.77251,6621
8.87031,6689
8.96811,6731
9.06591,6712
9.1637,6633
9.2615,6827
9.3593,7139
9.4571,7113
9.5549,7181
9.65269,7425
9.75049,7567
9.84829,7926
9.94609,7650
10.0439,7071
10.1417,6770
10.2395,6618
10.3373,6547
10.4351,6287
10.5329,6421
10.6307,6467
10.7285,6262
10.8263,6142
10.9241,6036
11.0219,6045
11.1197,6022
11.2175,5987
11.3153,6013
11.4131,5905
11.5109,5980
11.6087,5817
11.7065,5981
11.8042,5990
11.902,5884
11.9998,5901
12.0976,6012
12.1954,5972
12.2932,5991
12.391,6183
12.4888,6270
12.5866,6324
12.6844,6517
12.7822,6453
12.88,6669
12.9778,6871
13.0756,7296
13.1734,7786
13.2712,8401
13.369,9168
13.4668,10635
13.5646,12341
13.6624,15632
13.7602,20215
13.858,25277
13.9558,29078
14.0536,24241
14.1514,14626
14.2492,9827
14.347,7689
14.4448,6220
14.5426,5497
14.6404,4969
14.7382,4529
14.836,4405
14.9338,4086
15.0316,3941
15.1294,3906
15.2272,3644
15.325,3538
15.4228,3423
15.5206,3307
15.6184,3314
15.7162,3080
15.814,3208
15.9118,3127
16.0096,3125
16.1074,3164
16.2052,2969
16.303,2962
16.4008,2904
16.4986,2928
16.5963,2897
16.6941,2753
16.7919,2750
16.8897,2853
16.9875,2691
17.0853,2809
17.1831,2692
17.2809,2683
17.3787,2631
17.4765,2650
17.5743,2640
17.6721,2554
17.7699,2702
17.8677,2601
17.9655,2551
18.0633,2624
18.1611,2555
18.2589,2558
18.3567,2568
18.4545,2556
18.5523,2563
18.6501,2554
18.7479,2562
18.8457,2482
18.9435,2556
19.0413,2480
19.1391,2424
19.2369,2472
19.3347,2537
19.4325,2615
19.5303,2522
19.6281,2538
19.7259,2612
19.8237,2599
19.9215,2614
20.0193,2780
20.1171,2829
20.2149,2797
20.3127,2965
20.4105,2772
20.5083,2643
20.6061,2581
20.7039,2612
20.8017,2426
20.8995,2502
20.9973,2557
21.0951,2515
21.1929,2524
21.2907,2390
21.3884,2545
21.4862,2445
21.584,2498
21.6818,2497
21.7796,2495
21.8774,2458
21.9752,2403
22.073,2475
22.1708,2591
22.2686,2645
22.3664,2758
22.4642,2881
22.562,3133
22.6598,3223
22.7576,3459
22.8554,3286
22.9532,3212
23.051,3295
23.1488,3181
23.2466,3187
23.3444,3110
23.4422,3205
23.54,3065
23.6378,3055
23.7356,3126
23.8334,3253
23.9312,3318
24.029,2978
24.1268,3014
24.2246,3012
24.3224,3017
24.4202,3004
24.518,3001
24.6158,2848
24.7136,2920
24.8114,3006
24.9092,3064
25.007,3020
25.1048,2982
25.2026,3141
25.3004,2964
25.3982,2910
25.496,2978
25.5938,2917
25.6916,2890
25.7894,2927
25.8872,3035
25.985,2941
26.0828,2883
26.1805,2934
26.2783,2974
26.3761,2955
26.4739,2964
26.5717,3010
26.6695,3056
26.7673,3070
26.8651,3007
26.9629,3020
27.0607,3276
27.1585,3235
27.2563,3332
27.3541,3392
27.4519,3407
27.5497,3768
27.6475,3746
27.7453,4032
27.8431,4209
27.9409,4495
28.0387,5107
28.1365,5878
28.2343,7010
28.3321,8704
28.4299,12321
28.5277,18275
28.6255,21923
28.7233,17012
28.8211,12229
28.9189,9406
29.0167,8215
29.1145,7359
29.2123,6570
29.3101,6216
29.4079,5610
29.5057,5450
29.6035,5164
29.7013,5025
29.7991,4822
29.8969,4726
29.9947,4610