File: clay-plate-XRD-S2-2022/ENVT4461 S-14 Mg.csv
"Angle","Counts"
3.00243,25955
3.10023,23247
3.19803,21630
3.29583,19877
3.39363,18228
3.49142,17316
3.58922,16267
3.68702,15202
3.78482,14076
3.88261,13177
3.98041,12560
4.07821,11880
4.17601,11369
4.27381,10813
4.3716,10241
4.4694,9732
4.5672,9308
4.665,9048
4.7628,8817
4.86059,8546
4.95839,8162
5.05619,7863
5.15399,7928
5.25179,7772
5.34958,7728
5.44738,7569
5.54518,7348
5.64298,7317
5.74078,7131
5.83857,7154
5.93637,7079
6.03417,7203
6.13197,7216
6.22977,7125
6.32756,7039
6.42536,7074
6.52316,7014
6.62096,6988
6.71876,6905
6.81655,6865
6.91435,6868
7.01215,6673
7.10995,6892
7.20775,6708
7.30554,6582
7.40334,6692
7.50114,6492
7.59894,6514
7.69674,6334
7.79453,6418
7.89233,6379
7.99013,6473
8.08793,6145
8.18573,6252
8.28352,6147
8.38132,6228
8.47912,6437
8.57692,6131
8.67471,6165
8.77251,6091
8.87031,6045
8.96811,6022
9.06591,6004
9.1637,6086
9.2615,6088
9.3593,5899
9.4571,6023
9.5549,6081
9.65269,6245
9.75049,6424
9.84829,6569
9.94609,6423
10.0439,6376
10.1417,6032
10.2395,5933
10.3373,5933
10.4351,5953
10.5329,5819
10.6307,5725
10.7285,5756
10.8263,5678
10.9241,5606
11.0219,5600
11.1197,5552
11.2175,5688
11.3153,5513
11.4131,5514
11.5109,5462
11.6087,5446
11.7065,5550
11.8042,5563
11.902,5510
11.9998,5716
12.0976,5437
12.1954,5497
12.2932,5539
12.391,5603
12.4888,5695
12.5866,5807
12.6844,5753
12.7822,5935
12.88,5972
12.9778,6064
13.0756,6173
13.1734,6501
13.2712,6656
13.369,7175
13.4668,7595
13.5646,8533
13.6624,9532
13.7602,11382
13.858,14019
13.9558,16013
14.0536,16308
14.1514,11792
14.2492,7940
14.347,6365
14.4448,5372
14.5426,4628
14.6404,4317
14.7382,4155
14.836,3776
14.9338,3756
15.0316,3568
15.1294,3554
15.2272,3309
15.325,3150
15.4228,3165
15.5206,3061
15.6184,3020
15.7162,3031
15.814,3009
15.9118,2881
16.0096,2908
16.1074,2843
16.2052,2831
16.303,2791
16.4008,2855
16.4986,2695
16.5963,2632
16.6941,2667
16.7919,2627
16.8897,2764
16.9875,2603
17.0853,2497
17.1831,2494
17.2809,2494
17.3787,2531
17.4765,2438
17.5743,2452
17.6721,2408
17.7699,2531
17.8677,2409
17.9655,2346
18.0633,2315
18.1611,2429
18.2589,2343
18.3567,2311
18.4545,2368
18.5523,2365
18.6501,2350
18.7479,2438
18.8457,2319
18.9435,2244
19.0413,2283
19.1391,2317
19.2369,2358
19.3347,2348
19.4325,2371
19.5303,2332
19.6281,2409
19.7259,2283
19.8237,2389
19.9215,2393
20.0193,2406
20.1171,2420
20.2149,2468
20.3127,2592
20.4105,2507
20.5083,2459
20.6061,2417
20.7039,2398
20.8017,2292
20.8995,2419
20.9973,2415
21.0951,2317
21.1929,2312
21.2907,2342
21.3884,2369
21.4862,2339
21.584,2370
21.6818,2305
21.7796,2224
21.8774,2202
21.9752,2283
22.073,2329
22.1708,2328
22.2686,2244
22.3664,2546
22.4642,2647
22.562,2836
22.6598,3110
22.7576,3387
22.8554,3358
22.9532,3288
23.051,3211
23.1488,3050
23.2466,3040
23.3444,3124
23.4422,2888
23.54,2975
23.6378,2869
23.7356,2887
23.8334,3028
23.9312,3129
24.029,2879
24.1268,3014
24.2246,2905
24.3224,2833
24.4202,2802
24.518,2839
24.6158,2845
24.7136,2969
24.8114,2801
24.9092,2868
25.007,2752
25.1048,2819
25.2026,2851
25.3004,2891
25.3982,2852
25.496,2820
25.5938,2857
25.6916,2868
25.7894,2864
25.8872,2973
25.985,2822
26.0828,2900
26.1805,2706
26.2783,2895
26.3761,2851
26.4739,2896
26.5717,2889
26.6695,2895
26.7673,2813
26.8651,2875
26.9629,2951
27.0607,3047
27.1585,3071
27.2563,3133
27.3541,3114
27.4519,3168
27.5497,3359
27.6475,3380
27.7453,3509
27.8431,3631
27.9409,3851
28.0387,4046
28.1365,4473
28.2343,4814
28.3321,5712
28.4299,6957
28.5277,9321
28.6255,12532
28.7233,12731
28.8211,9335
28.9189,7134
29.0167,6263
29.1145,5819
29.2123,5298
29.3101,4784
29.4079,4693
29.5057,4405
29.6035,4322
29.7013,4194
29.7991,4139
29.8969,4078
29.9947,4081