File: clay-plate-XRD-S2-2022/ENVT4461 S-16 Heated-400.csv
"Angle","Counts"
3.00243,25316
3.10023,23279
3.19803,20708
3.29583,18989
3.39363,17579
3.49142,16106
3.58922,15161
3.68702,14533
3.78482,13748
3.88261,13123
3.98041,12385
4.07821,11865
4.17601,11117
4.27381,10939
4.3716,10534
4.4694,10403
4.5672,10344
4.665,9999
4.7628,9888
4.86059,9940
4.95839,9750
5.05619,9708
5.15399,9890
5.25179,9785
5.34958,9769
5.44738,9969
5.54518,9723
5.64298,10159
5.74078,9933
5.83857,10331
5.93637,10294
6.03417,10212
6.13197,10370
6.22977,10236
6.32756,10497
6.42536,10574
6.52316,10640
6.62096,10757
6.71876,10885
6.81655,10835
6.91435,10772
7.01215,10960
7.10995,10956
7.20775,11108
7.30554,11151
7.40334,11312
7.50114,11249
7.59894,11335
7.69674,11369
7.79453,11177
7.89233,11481
7.99013,11470
8.08793,11654
8.18573,11696
8.28352,11678
8.38132,11847
8.47912,12109
8.57692,11958
8.67471,11962
8.77251,12029
8.87031,12245
8.96811,12225
9.06591,12673
9.1637,12636
9.2615,12603
9.3593,12929
9.4571,13142
9.5549,13438
9.65269,13924
9.75049,14591
9.84829,14764
9.94609,14418
10.0439,13269
10.1417,12384
10.2395,12245
10.3373,12023
10.4351,11711
10.5329,11236
10.6307,10960
10.7285,10618
10.8263,10313
10.9241,10091
11.0219,9740
11.1197,9659
11.2175,9462
11.3153,9312
11.4131,9182
11.5109,8958
11.6087,8886
11.7065,8666
11.8042,8633
11.902,8565
11.9998,8617
12.0976,8496
12.1954,8656
12.2932,8686
12.391,8912
12.4888,9100
12.5866,8995
12.6844,9209
12.7822,9439
12.88,9765
12.9778,10201
13.0756,10731
13.1734,11399
13.2712,12429
13.369,13724
13.4668,15699
13.5646,18745
13.6624,24015
13.7602,31584
13.858,40176
13.9558,46477
14.0536,38186
14.1514,23007
14.2492,15261
14.347,11449
14.4448,9241
14.5426,7771
14.6404,6901
14.7382,6173
14.836,5645
14.9338,5311
15.0316,4921
15.1294,4654
15.2272,4581
15.325,4288
15.4228,4187
15.5206,4028
15.6184,3833
15.7162,3692
15.814,3684
15.9118,3606
16.0096,3530
16.1074,3511
16.2052,3359
16.303,3312
16.4008,3290
16.4986,3209
16.5963,3173
16.6941,3208
16.7919,3135
16.8897,3167
16.9875,2991
17.0853,2971
17.1831,3092
17.2809,2952
17.3787,2954
17.4765,3022
17.5743,2972
17.6721,2807
17.7699,2846
17.8677,2812
17.9655,2904
18.0633,2866
18.1611,2911
18.2589,2797
18.3567,2878
18.4545,2856
18.5523,2792
18.6501,2846
18.7479,2783
18.8457,2829
18.9435,2831
19.0413,2819
19.1391,2912
19.2369,2911
19.3347,2801
19.4325,2856
19.5303,2911
19.6281,2996
19.7259,2877
19.8237,2996
19.9215,2909
20.0193,3127
20.1171,3264
20.2149,3329
20.3127,3432
20.4105,3155
20.5083,3084
20.6061,3030
20.7039,2828
20.8017,2830
20.8995,2791
20.9973,2619
21.0951,2621
21.1929,2728
21.2907,2582
21.3884,2641
21.4862,2494
21.584,2497
21.6818,2627
21.7796,2556
21.8774,2548
21.9752,2668
22.073,2521
22.1708,2566
22.2686,2598
22.3664,2615
22.4642,2878
22.562,2838
22.6598,2984
22.7576,3007
22.8554,2911
22.9532,2926
23.051,2763
23.1488,2898
23.2466,2858
23.3444,2754
23.4422,2798
23.54,2730
23.6378,2757
23.7356,2960
23.8334,3032
23.9312,2809
24.029,2869
24.1268,2817
24.2246,2730
24.3224,2752
24.4202,2676
24.518,2748
24.6158,2749
24.7136,2679
24.8114,2752
24.9092,2765
25.007,2710
25.1048,2738
25.2026,2875
25.3004,2772
25.3982,2645
25.496,2680
25.5938,2781
25.6916,2829
25.7894,2781
25.8872,2839
25.985,2895
26.0828,2823
26.1805,2807
26.2783,2888
26.3761,2895
26.4739,2817
26.5717,2831
26.6695,2984
26.7673,3037
26.8651,3135
26.9629,3132
27.0607,3456
27.1585,3392
27.2563,3439
27.3541,3702
27.4519,3838
27.5497,4039
27.6475,4024
27.7453,4569
27.8431,5185
27.9409,5589
28.0387,6456
28.1365,7398
28.2343,9189
28.3321,11990
28.4299,17189
28.5277,24625
28.6255,30755
28.7233,24333
28.8211,17110
28.9189,13205
29.0167,10925
29.1145,9788
29.2123,8695
29.3101,7897
29.4079,7359
29.5057,7103
29.6035,6631
29.7013,6558
29.7991,6299
29.8969,6076
29.9947,6165