File: RP-XRD-S2-2022/S14.csv
Pos. [°2?],Intensity [Counts],,,
6.6419,5817.79,,,
6.6639,5891.39,,,
6.6859,5996.16,,,
6.7079,5946.35,,,
6.7299,5827.53,,,
6.7519,5749.83,,,
6.7739,5764.61,,,
6.7959,5701.62,,,
6.8179,5777.475,,,
6.8399,5778.12,,,
6.8619,5808.45,,,
6.8839,5861.72,,,
6.9059,5713.75,,,
6.9279,5666.58,,,
6.9499,5778.33,,,
6.9719,5649.87,,,
6.9939,5687.63,,,
7.0159,5694.48,,,
7.0379,5669.704,,,
7.0599,5692.44,,,
7.0819,5651.6,,,
7.1039,5620.75,,,
7.1259,5494.58,,,
7.1479,5425.81,,,
7.1699,5586.85,,,
7.1919,5530.97,,,
7.2139,5582.63,,,
7.2359,5476.44,,,Q= Quartz (SiO2)
7.2579,5430.32,,,K = Kaolinite (Al2Si2O5(OH)4)
7.2799,5362.15,,,M = Muscovite (Mica Group) (Al2K2O6Si)
7.3019,5551.35,,,H = Halite (NaCl)
7.3239,5374.95,,,"A = Albite (Feldspar, NaAlSi3O8)"
7.3459,5344.24,,,
7.5879,5310.21,,,
7.8299,5232.43,,,
8.0719,5094.62,,,
8.3139,5019.12,,,
8.5559,4955.4,,,
8.7979,4769.27,,,
9.0399,4653.44,,,
9.2819,4557.68,,,
9.5239,4545.34,,,
9.7659,4451.46,,,
10.0079,4508.17,,,
10.2499,4935.36,,,
10.4919,4133.58,,,
10.7339,3823.79,,,
10.9759,4002.4,,,
11.2179,3717.85,,,
11.4599,3597.06,,,
11.7019,3621.23,,,
11.9439,3498.4,,,
12.1859,3511.07,,,
12.4279,3297.7,,,
12.6699,3415.35,,,
12.9119,3302.37,,,
13.1539,3276.72,,,
13.3959,3348.75,,,
13.6379,3422.5,,,
13.8799,3779.81,,,
14.1219,4722.05,,,
14.3639,6200.85,,,
14.6059,3559,,,
14.8479,2969.66,,,
15.0899,2648.07,,,
15.3319,2673.32,,,
15.5739,2566.45,,,
15.8159,2517.06,,,
16.0579,2559.1,,,
16.2999,2386.2,,,
16.5419,2344.42,,,
16.7839,2329,,,
17.0259,2340.19,,,
17.2679,2311.94,,,
17.5099,2295.47,,,
17.7519,2277.68,,,
17.9939,2295.02,,,
18.2359,2182.33,,,
18.4779,2226.529,,,
18.7199,2229.16,,,
18.9619,2130.04,,,
19.2039,2189.46,,,
19.4459,2174.7,,,
19.6879,2220.87,,,
19.9299,2130.96,,,
20.1719,2196.26,,,
20.4139,2284.48,,,
20.6559,2420.95,,,
20.8979,2250.26,,,
21.1399,2212.14,,,
21.3819,2174.98,,,
21.6239,2204.63,,,
21.8659,2258.826,,,
22.1079,2320.46,,,
22.3499,2473.26,,,
22.5919,2884.79,,,
22.8339,4104.55,,,
23.0759,5840.99,,,
23.3179,5206.24,,,
23.5599,4668.92,,,
23.8019,4548.11,,,
24.0439,4496.65,,,
24.2859,8846.493,,,
24.5279,4330,,,
24.7699,3934.57,,,
25.0119,3729.44,,,
25.2539,3468.33,,,
25.4959,3558.14,,,
25.7379,3474.67,,,
25.9799,3328.82,,,
26.2219,3247.62,,,
26.4639,3122.29,,,
26.7059,3359.47,,,
26.9479,3253.97,,,
27.1899,3012.45,,,
27.4319,3267.99,,,
27.6739,3149.92,,,
27.9159,3172.14,,,
28.1579,3307.56,,,
28.3999,3277.13,,,
28.6419,3575.67,,,
28.8839,4767.867,,,
29.1259,4366.95,,,
29.3679,3862.32,,,
29.6099,3652.56,,,
29.8519,3296.27,,,
30.0939,3001.5,,,
30.3359,3003.87,,,
30.5779,3128.96,,,
30.8199,3925.65,,,
31.0619,13311.3,,,
31.3039,3275.43,,,
31.5459,3115.98,,,
31.7879,2799.46,,,
32.0299,3523.14,,,
32.2719,2963.43,,,
32.5139,3894.95,,,
32.7559,2748.87,,,
32.9979,2496.49,,,
33.2399,2265.83,,,
33.4819,2206.81,,,
33.7239,2154.12,,,
33.9659,2185.72,,,
34.2079,2111.07,,,
34.4499,2110.45,,,
34.6919,2163.82,,,
34.9339,2207.77,,,
35.1759,2583.16,,,
35.4179,2116.61,,,
35.6599,2008.27,,,
35.9019,2069.82,,,
36.1439,1873,,,
36.3859,2014.41,,,
36.6279,1869.32,,,
36.8699,2106.26,,,
37.1119,1998.48,,,
37.3539,1815.34,,,
37.5959,1753.85,,,
37.8379,1771.62,,,
38.0799,1707.85,,,
38.3219,1641.76,,,
38.5639,1700.553,,,
38.8059,1673.171,,,
39.0479,1601.9,,,
39.2899,1644.73,,,
39.5319,1698.57,,,
39.7739,1819.59,,,
40.0159,2016.86,,,
40.2579,2265.364,,,
40.4999,2521.84,,,
40.7419,3189.94,,,
40.9839,3017.18,,,
41.2259,2620.56,,,
41.4679,2574.89,,,
41.7099,2587.07,,,
41.9519,2761.77,,,
42.1939,2477.96,,,
42.4359,2365.31,,,
42.6779,3219.13,,,
42.9199,2350.77,,,
43.1619,2345.88,,,
43.4039,2271.68,,,
43.6459,2164.39,,,
43.8879,2312.736,,,
44.1299,2460.83,,,
44.3719,2298.57,,,
44.6139,2396.3,,,
44.8559,2712.79,,,
45.0979,2532.54,,,
45.3399,2149.78,,,
45.5819,2021.3,,,
45.8239,2130.72,,,
46.0659,2178.43,,,
46.3079,1985.69,,,
46.5499,1711.89,,,
46.7919,1818.128,,,
47.0339,1880.41,,,
47.2759,1838.96,,,
47.5179,1641.4,,,
47.7599,1633.8,,,
48.0019,1621.6,,,
48.2439,1722.37,,,
48.4859,1630.59,,,
48.7279,1619.6,,,
48.9699,1697.22,,,
49.2119,1574.66,,,
49.4539,1573.23,,,
49.6959,2509.72,,,
49.9379,1499.6,,,
50.1799,1509.46,,,
50.4219,1464.32,,,
50.6639,1517.62,,,
50.9059,1416.09,,,
51.1479,1424.98,,,
51.3899,1373.37,,,
51.6319,1458.04,,,
51.8739,1424.39,,,
52.1159,1456.73,,,
52.3579,1457.34,,,
52.5999,1409.449,,,
52.8419,1508.32,,,
53.0839,1680.52,,,
53.3259,1914.64,,,
53.5679,1674.22,,,
53.8099,1997.35,,,
54.0519,1468.57,,,
54.2939,1484.51,,,
54.5359,1402.65,,,
54.7779,1433.15,,,
55.0199,1390.88,,,
55.2619,1403.65,,,
55.5039,1334.15,,,
55.7459,1372.21,,,
55.9879,1368.67,,,
56.2299,1404.585,,,
56.4719,1399.19,,,
56.7139,1354.99,,,
56.9559,1253.39,,,
57.1979,1267.65,,,
57.4399,1313.21,,,
57.6819,1265.27,,,
57.9239,1301.01,,,
58.1659,1226.86,,,
58.4079,1297.196,,,
58.6499,1330.73,,,
58.8919,2265.64,,,
59.1339,1331.58,,,
59.3759,1350.7,,,
59.6179,1301.41,,,
59.8599,1214.6,,,
60.1019,1290.86,,,
60.3439,1240.22,,,
60.5859,1141.86,,,
60.8279,1116.4,,,
61.0699,1087.2,,,
61.3119,1178.6,,,
61.5539,1214.13,,,
61.7959,1137.17,,,
62.0379,1205.72,,,
62.2799,1187.14,,,
62.5219,1178.96,,,
62.7639,1317.47,,,
63.0059,1291.42,,,
63.2479,1301.67,,,
63.4899,1385.76,,,
63.7319,1483.945,,,
63.9739,1565.19,,,
64.2159,1527.77,,,
64.4579,1618.772,,,
64.6999,1907.04,,,
64.9419,1740.84,,,
65.1839,1700.91,,,
65.4259,1667.4,,,
65.6679,1528.15,,,
65.9099,1458.95,,,
66.1519,1358.69,,,
66.3939,1379.02,,,
66.6359,1475.54,,,
66.8779,1423.451,,,
67.1199,1377.09,,,
67.3619,1322.48,,,
67.6039,1284.32,,,
67.8459,1216.59,,,
68.0879,1195.49,,,
68.3299,1182.63,,,
68.5719,1242.05,,,
68.8139,1216.37,,,
69.0559,1192.34,,,
69.2979,1180.029,,,
69.5399,1170.75,,,
69.7819,1097.625,,,
70.0239,1198.61,,,
70.2659,1177.17,,,
70.5079,1193.65,,,
70.7499,1304.43,,,
70.9919,1563.18,,,
71.2339,1259.69,,,
71.4759,1217.15,,,
71.7179,1211,,,
71.9599,1235.36,,,
72.2019,1270.16,,,
72.4439,1396.78,,,
72.6859,1424.06,,,
72.9279,1485.217,,,
73.1699,1594,,,
73.4119,1674.69,,,
73.6539,1856.4,,,
73.8959,1966.89,,,
74.1379,1683.71,,,
74.3799,1429.3,,,
74.6219,1317.58,,,
74.8639,1299.071,,,
75.1059,1267.05,,,
75.3479,1288.72,,,
75.5899,1216.13,,,
75.8319,1270.24,,,
76.0739,1238.74,,,
76.3159,1133.06,,,
76.5579,1127.55,,,
76.7999,1099.57,,,
77.0419,1131.345,,,
77.2839,1165.36,,,
77.5259,1141.83,,,
77.7679,1137.95,,,
78.0099,1017.8,,,
78.2519,1098.84,,,
78.4939,1049.54,,,
78.7359,1127.35,,,
78.9779,1130.3,,,
79.2199,1074.57,,,
79.4619,1124.56,,,
79.6599,1120.29,,,