File: RP-XRD-S2-2022/S15.csv
Angle,Counts
8.5339,5073.49
8.7979,5030.75
9.0619,4938.84
9.3259,4718.28
9.5899,4640.14
9.8539,4617.3
10.1179,4823.55
10.3819,4620.348
10.6459,4132.475
10.9099,4003.19
11.1739,3706.57
11.4379,3652.6
11.7019,3607.2
11.9659,3507.95
12.2299,3438.5
12.4939,3358.531
12.7579,3316.941
13.0219,3356.52
13.2859,3385.22
13.5499,3498.77
13.8139,3955.09
14.0779,4976.07
14.3419,7736.75
14.6059,3998.28
14.8699,3065.5
15.1339,2809.5
15.3979,2758.07
15.6619,2566.23
15.9259,2556.45
16.1899,2473.01
16.4539,2402.18
16.7179,2403.33
16.9819,2387.57
17.2459,2356.35
17.5099,2313.24
17.7739,2330.75
18.0379,2325.52
18.3019,2159.17
18.5659,2203.67
18.8299,2205.3
19.0939,2146.22
19.3579,2162.3
19.6219,2207.64
19.8859,2162.02
20.1499,2207.91
20.4139,2273.74
20.6779,2402.96
20.9419,2324.37
21.2059,2279.62
21.4699,2220.78
21.7339,2211.354
21.9979,2379.08
22.2619,2268.773
22.5259,2786.99
22.7899,3712.21
23.0539,5623.9
23.3179,5201.66
23.5819,4817.49
23.8459,4574.764
24.1099,4533.92
24.3739,4783.265
24.6379,4068.35
24.9019,3923.99
25.1659,3637.97
25.4299,3448.475
25.6939,3996.06
25.9579,3428.07
26.2219,3158.2
26.4859,3152.41
26.7499,3239.78
27.0139,3431.18
27.2779,3126.67
27.5419,3081.85
27.8059,3166.5
28.0699,3271.42
28.3339,3568.67
28.5979,3499.34
28.8619,5072.88
29.1259,4979.37
29.3899,4060.36
29.6539,3824.48
29.9179,3411.65
30.1819,3011.18
30.4459,3048.03
30.7099,3518.96
30.9739,8795.06
31.2379,3587.1
31.5019,3190.49
31.7659,2788.68
32.0299,3863.71
32.2939,3102.27
32.5579,4259.85
32.8219,2729.15
33.0859,2476.81
33.3499,2414.78
33.6139,2165.67
33.8779,2240.73
34.1419,2125.08
34.4059,2215.27
34.6699,2222.68
34.9339,2242.67
35.1979,2269.2
35.4619,2153.19
35.7259,2073.88
35.9899,2077.57
36.2539,1914.761
36.5179,2106.29
36.7819,1960.06
37.0459,2176.57
37.3099,1897.9
37.5739,1836.66
37.8379,1832.81
38.1019,1722.82
38.3659,1760.88
38.6299,1717.85
38.8939,1702.66
39.1579,1717.38
39.4219,1670.64
39.6859,1735.009
39.9499,1965.909
40.2139,2236.75
40.4779,2541.46
40.7419,3290.61
41.0059,3228.43
41.2699,2760.16
41.5339,2643.28
41.7979,2617.8
42.0619,2854.21
42.3259,2379.614
42.5899,2442.74
42.8539,2418.83
43.1179,2320.72
43.3819,2295.03
43.6459,2280.53
43.9099,2359.19
44.1739,2625.04
44.4379,2401.71
44.7019,2586.44
44.9659,2837.64
45.2299,2416.02
45.4939,2180.404
45.7579,2216.99
46.0219,2123.83
46.2859,2114.7
46.5499,1775.83
46.8139,1703.96
47.0779,1956.57
47.3419,1721.41
47.6059,1668.646
47.8699,1669.28
48.1339,1673.62
48.3979,1752.73
48.6619,1668.67
48.9259,1750.27
49.1899,1672.75
49.4539,1579
49.7179,2093.5
49.9819,1653.42
50.2459,1498.89
50.5099,1434.07
50.7739,1438.43
51.0379,1497.09
51.3019,1489.33
51.5659,1495.37
51.8299,1495.93
52.0939,1495.91
52.3579,1457.071
52.6219,1458.71
52.8859,1537.6
53.1499,1770.56
53.4139,1961.62
53.6779,1964.14
53.9419,1635.99
54.2059,1514.51
54.4699,1489.23
54.7339,1454.68
54.9979,1486.03
55.2619,1420.16
55.5259,1393.504
55.7899,1400.78
56.0539,1412.71
56.3179,1480.33
56.5819,1443.43
56.8459,1311.65
57.1099,1277.6
57.3739,1354.75
57.6379,1338.23
57.9019,1419.68
58.1659,1344.501
58.4299,1285.99
58.6939,1425.85
58.9579,2955.67
59.2219,1319.34
59.4859,1434.702
59.7499,1307.28
60.0139,1323.96
60.2779,1310.86
60.5419,1229.912
60.8059,1169.779
61.0699,1130.124
61.3339,1195.14
61.5979,1232.48
61.8619,1212.59
62.1259,1238.466
62.3899,1226.81
62.6539,1294.4
62.9179,1386.89
63.1819,1375.96
63.4459,1482.33
63.7099,1530.44
63.9739,1638.95
64.2379,1678.76
64.5019,1665.224
64.7659,1845.44
65.0299,1812.76
65.2939,1763.83
65.5579,1611.5
65.8219,1580.16
66.0859,1427.59
66.3499,1423.46
66.6139,1489.85
66.8779,1479.53
67.1419,1423.79
67.4059,1297.006
67.6699,1305.45
67.9339,1260.48
68.1979,1263.47
68.4619,1229.09
68.7259,1256.31
68.9899,1225.09
69.2539,1236.56
69.5179,1205.72
69.7819,1210.7
70.0459,1271.74
70.3099,1263.73
70.5739,1315.7
70.8379,1480.21
71.1019,1720.34
71.3659,1321.44
71.6299,1285.38
71.8939,1317.76
72.1579,1326.79
72.4219,1392.65
72.6859,1507.23
72.9499,1487.86
73.2139,1627.183
73.4779,1767.81
73.7419,2080.09
74.0059,1832.93
74.2699,1537.27
74.5339,1363.97
74.7979,1358.73
75.0619,1259.19
75.3259,1318.99
75.5899,1369.74
75.8539,1387.26
76.1179,1270.3
76.3819,1245.57
76.6459,1149.94
76.9099,1128.47
77.1739,1149.89
77.4379,1197.08
77.7019,1153.08
77.9659,1074.61
78.2299,1107.51
78.4939,1092.66
78.7579,1157.76
79.0219,1168.354
79.2859,1097.66
79.5499,1135.96
79.8139,1150.96
78.1859,1174.7
78.4499,1103.19
78.7139,1157.76
78.9779,1130.3
79.2419,1043.49
79.5059,1059.77
79.6599,1120.29