File: RP-XRD-S2-2022/S16.csv
Pos. [°2?],Intensity [Counts]
7.3239,5906.18
7.5879,5887.585
7.8519,5759.94
8.1159,5443.48
8.3799,5437.41
8.6439,5282.561
8.9079,5166.31
9.1719,4901.94
9.4359,4773.39
9.6999,4556.88
9.9639,4732.18
10.2279,5313.19
10.4919,4276.31
10.7559,3942.34
11.0199,3815.73
11.2839,3864.54
11.5479,3635.95
11.8119,3510.64
12.0759,3506.8
12.3399,3475
12.6039,3323.12
12.8679,3419.6
13.1319,3448.762
13.3959,3526.22
13.6599,3687.53
13.9239,4232.247
14.1879,6109.37
14.4519,6184.973
14.7159,3458.9
14.9799,2881.291
15.2439,2831.84
15.5079,2637.66
15.7719,2582.75
16.0359,2626
16.2999,2475.63
16.5639,2397.96
16.8279,2382.85
17.0919,2389.25
17.3559,2416.93
17.6199,2284.7
17.8839,2319.84
18.1479,2224.23
18.4119,2308.36
18.6759,2224.84
18.9399,2155.2
19.2039,2180.34
19.4679,2250.64
19.7319,2148.229
19.9959,2144.117
20.2599,2258.846
20.5239,2289.24
20.7879,2303.46
21.0519,2215.79
21.3159,2310.39
21.5799,2264.7
21.8439,2444.45
22.1079,2338.35
22.3719,2488.33
22.6359,3062.35
22.8999,4323.97
23.1639,5892.26
23.4279,4980.9
23.6919,4714.05
23.9559,4478.17
24.2199,6152.22
24.4839,4568.43
24.7479,4075.32
25.0119,3770.17
25.2759,3549.96
25.5399,3653.9
25.8039,3351.49
26.0679,3335.17
26.3319,3195.38
26.5959,3271.46
26.8599,3321.7
27.1239,3105.02
27.3879,3350.28
27.6519,3134.321
27.9159,3197.383
28.1799,3449.86
28.4439,3353.24
28.7079,3865.94
28.9719,6155.48
29.2359,4212.883
29.4999,3960.53
29.7639,4051.79
30.0279,3087.76
30.2919,2917.01
30.5559,3011.05
30.8199,3840.05
31.0839,13657.7
31.3479,3131.94
31.6119,2993.65
31.8759,3010.48
32.1399,2857
32.4039,3193.4
32.6679,3261.53
32.9319,2651.71
33.1959,2358.96
33.4599,2240.42
33.7239,2225.91
33.9879,2142.18
34.2519,2110.65
34.5159,2272.62
34.7799,2287.6
35.0439,2225.07
35.3079,2184.86
35.5719,2374.46
35.8359,2095.57
36.0999,2018.89
36.3639,1971.1
36.6279,1966.39
36.8919,1993.44
37.1559,1950.36
37.4199,1851.69
37.6839,1822.22
37.9479,1728.15
38.2119,1747.297
38.4759,1672.91
38.7399,1703.96
39.0039,1761.12
39.2679,1593.05
39.5319,1749.46
39.7959,1815.96
40.0599,2080.04
40.3239,2386.228
40.5879,2767.63
40.8519,3520.58
41.1159,2833.09
41.3799,2654.85
41.6439,2680.25
41.9079,2816.51
42.1719,2618.031
42.4359,2294.44
42.6999,3024.2
42.9639,2341.24
43.2279,2388.05
43.4919,2245.34
43.7559,2368
44.0199,2514.46
44.2839,2450
44.5479,2407.03
44.8119,2773.31
45.0759,2665.63
45.3399,2245.89
45.6039,2126.09
45.8679,2221.31
46.1319,2681.41
46.3959,1906.499
46.6599,1767.06
46.9239,1778.15
47.1879,1931.5
47.4519,1695.51
47.7159,1659.36
47.9799,1690.07
48.2439,1733.52
48.5079,1643.12
48.7719,1692.92
49.0359,1729.69
49.2999,1606.71
49.5639,1607.52
49.8279,1949.15
50.0919,1559.53
50.3559,1451.56
50.6199,1487.26
50.8839,1451.81
51.1479,1452.64
51.4119,1476.08
51.6759,1434.36
51.9399,1382.98
52.2039,1416.21
52.4679,1427.998
52.7319,1461.62
52.9959,1579.64
53.2599,1964.85
53.5239,1743.11
53.7879,1723.436
54.0519,1524.81
54.3159,1393.77
54.5799,1451.34
54.8439,1482.487
55.1079,1464.72
55.3719,1454.4
55.6359,1418.04
55.8999,1354.36
56.1639,1420.315
56.4279,1442.75
56.6919,1396.36
56.9559,1333.72
57.2199,1361.11
57.4839,1322.01
57.7479,1362.65
58.0119,1308.68
58.2759,1284.76
58.5399,1388.52
58.8039,1394.89
59.0679,1867.43
59.3319,1336.22
59.5959,1402.11
59.8599,1331.268
60.1239,1389.52
60.3879,1278.62
60.6519,1164.7
60.9159,1175.56
61.1799,1164.99
61.4439,1197.99
61.7079,1280.1
61.9719,1706.331
62.2359,1251.24
62.4999,1253
62.7639,1291.29
63.0279,1268
63.2919,1398.72
63.5559,1458.1
63.8199,1492.184
64.0839,1566.2
64.3479,1590.58
64.6119,1830.644
64.8759,1944.96
65.1399,1807.572
65.4039,1759.35
65.6679,1553.43
65.9319,1509.67
66.1959,1517.58
66.4599,1403.759
66.7239,1498.88
66.9879,1390.36
67.2519,1367.48
67.5159,1318.96
67.7799,1332.3
68.0439,1304.9
68.3079,1279.16
68.5719,1274.93
68.8359,1226.21
69.0999,1222.18
69.3639,1237.13
69.6279,1182.15
69.8919,1124.82
70.1559,1245.06
70.4199,1284.47
70.6839,1230.51
70.9479,2140.72
71.2119,1408.57
71.4759,1293.92
71.7399,1370.13
72.0039,1292.62
72.2679,1380.83
72.5319,1428.68
72.7959,1475.63
73.0599,1571.09
73.3239,1685.852
73.5879,1876.97
73.8519,2078.06
74.1159,1720.5
74.3799,1480.05
74.6439,1376.34
74.9079,1267.85
75.1719,1224.32
75.4359,1295.94
75.6999,1404.21
75.9639,1438.636
76.2279,1322.23
76.4919,1173.87
76.7559,1197.92
77.0199,1124.148
77.2839,1173.16
77.5479,1199.96
77.8119,1134.17
78.0759,1124.41
78.3399,1103.58
78.6039,1116.88
78.8679,1109.22
79.1319,1159.644
79.3959,1063.44
79.6599,1101
79.2419,1043.49
79.5059,1059.77
79.6599,1120.29