File: RP-XRD-S2-2022/S17.csv
Pos. [°2?],Intensity [Counts]
3.7819,17177
4.0459,13874.6
4.3099,11612.8
4.5739,9609.31
4.8379,8009.96
5.1019,6823.39
5.3659,6096.21
5.6299,5611.06
5.8939,5139.19
6.1579,4909.37
6.4219,4738.51
6.6859,4556.6
6.9499,4476.54
7.2139,4265.45
7.4779,4197.88
7.7419,4093.06
8.0059,3900.13
8.2699,3936
8.5339,3733.27
8.7979,3787.02
9.0619,3544.2
9.3259,3518.21
9.5899,3522.75
9.8539,3579.93
10.1179,3515.4
10.3819,3659.92
10.6459,3227.44
10.9099,3300.531
11.1739,3185.46
11.4379,3130.86
11.7019,3106.71
11.9659,3019.2
12.2299,3083.17
12.4939,3018.72
12.7579,2865.5
13.0219,2900.003
13.2859,2971.2
13.5499,3013.2
13.8139,3109.55
14.0779,3450.58
14.3419,4486.27
14.6059,3171.97
14.8699,2707.35
15.1339,2524.994
15.3979,2478.73
15.6619,2423.61
15.9259,2845.81
16.1899,2830.54
16.4539,2277.46
16.7179,2204.16
16.9819,2208.64
17.2459,2161.89
17.5099,2146.363
17.7739,1982.38
18.0379,2034.76
18.3019,1949.04
18.5659,2052.83
18.8299,1932.44
19.0939,1942.04
19.3579,1939.26
19.6219,1823.66
19.8859,1897.17
20.1499,1846.05
20.4139,1917.19
20.6779,2041.6
20.9419,2002.79
21.2059,1860.51
21.4699,1822.4
21.7339,1826.86
21.9979,1932.55
22.2619,1811.416
22.5259,1856.4
22.7899,2043.96
23.0539,2580.95
23.3179,2557.05
23.5819,2395.416
23.8459,2663.98
24.1099,3840.64
24.3739,12972.292
24.6379,2658.8
24.9019,2302.87
25.1659,2048.14
25.4299,2145.92
25.6939,3032.914
25.9579,2162.78
26.2219,1973.74
26.4859,1862.27
26.7499,2017.88
27.0139,2258.45
27.2779,1913.35
27.5419,2461.4
27.8059,2061.51
28.0699,2702.71
28.3339,2641.6
28.5979,2008.09
28.8619,2425.11
29.1259,2561.39
29.3899,2107.08
29.6539,2157
29.9179,2409.35
30.1819,1834.88
30.4459,2214.34
30.7099,3600.16
30.9739,25871.5
31.2379,6977.97
31.5019,3165.52
31.7659,2269.41
32.0299,9605.07
32.2939,2699.72
32.5579,4772.13
32.8219,3299.03
33.0859,1824.62
33.3499,1675
33.6139,1574
33.8779,1629.77
34.1419,1597.39
34.4059,1646.18
34.6699,1573.78
34.9339,1538.01
35.1979,1762
35.4619,1621.27
35.7259,1602.478
35.9899,1721.84
36.2539,1363.04
36.5179,1471.54
36.7819,1461.1
37.0459,1320.43
37.3099,1248.93
37.5739,1458.02
37.8379,1388.67
38.1019,1316.55
38.3659,1312.31
38.6299,1409.91
38.8939,1441.56
39.1579,1241.44
39.4219,1192.56
39.6859,1241.23
39.9499,1429.71
40.2139,1356.27
40.4779,1478.38
40.7419,1745.52
41.0059,1866.1
41.2699,1740.19
41.5339,1932.829
41.7979,1700.57
42.0619,1635.24
42.3259,1454.19
42.5899,1905.81
42.8539,4436.85
43.1179,1515.69
43.3819,1416.87
43.6459,1448.63
43.9099,1396.11
44.1739,1451.6
44.4379,1320.56
44.7019,1367.05
44.9659,1455.02
45.2299,1366.5
45.4939,1307.42
45.7579,1331.13
46.0219,1440.98
46.2859,3861.91
46.5499,1199.96
46.8139,1093.95
47.0779,1667.6
47.3419,1660.28
47.6059,1154
47.8699,1219.11
48.1339,1140.35
48.3979,1175.7
48.6619,1093.21
48.9259,1493.22
49.1899,1173.41
49.4539,1158.52
49.7179,5650.69
49.9819,1453.55
50.2459,1417.106
50.5099,1111.07
50.7739,982.5396
51.0379,1028.63
51.3019,950.2212
51.5659,976.4835
51.8299,945.2479
52.0939,982.5046
52.3579,977.0764
52.6219,943.8912
52.8859,978.6812
53.1499,1051.755
53.4139,1207.24
53.6779,2295.89
53.9419,1348.07
54.2059,1059.28
54.4699,995.3096
54.7339,998.7023
54.9979,953.7729
55.2619,1088.34
55.5259,961.177
55.7899,954.4688
56.0539,914.9205
56.3179,927.6581
56.5819,1040.05
56.8459,986.6903
57.1099,886.6433
57.3739,1009.177
57.6379,1032.67
57.9019,940.4957
58.1659,1048.32
58.4299,1042.744
58.6939,1415.14
58.9579,13134.4
59.2219,1734.29
59.4859,1467.13
59.7499,1111.41
60.0139,970.2302
60.2779,924.631
60.5419,889.8437
60.8059,874.1416
61.0699,775.3247
61.3339,825.8466
61.5979,875.6635
61.8619,861.4484
62.1259,875.2269
62.3899,820.5663
62.6539,940.9468
62.9179,901.6904
63.1819,843.2037
63.4459,992.6664
63.7099,1028.4
63.9739,999.5838
64.2379,953.2745
64.5019,1039.77
64.7659,4064.22
65.0299,1159.36
65.2939,1836.61
65.5579,978.3626
65.8219,901.9968
66.0859,889.5223
66.3499,899.5224
66.6139,808.1797
66.8779,894.4421
67.1419,881.1065
67.4059,876.9055
67.6699,930.1356
67.9339,858.0886
68.1979,825.941
68.4619,788.1002
68.7259,790.5664
68.9899,840.3567
69.2539,868.0945
69.5179,857.4337
69.7819,800.6195
70.0459,823.8055
70.3099,810.5489
70.5739,1068.11
70.8379,1904.81
71.1019,4311.65
71.3659,969.2386
71.6299,799.9439
71.8939,789.0358
72.1579,842.1768
72.4219,900.5453
72.6859,836.5663
72.9499,879.3569
73.2139,891
73.4779,926.7522
73.7419,967.2985
74.0059,1024.24
74.2699,1010.22
74.5339,891.9765
74.7979,839.5161
75.0619,815.646
75.3259,821.4451
75.5899,932.646
75.8539,1041.77
76.1179,1335.87
76.3819,845.339
76.6459,849.1594
76.9099,793.2538
77.1739,839.9202
77.4379,840.2919
77.7019,821.5244
77.9659,781.5635
78.2299,1258.78
78.4939,864.0593
78.7579,772.2506
79.0219,824.7522
79.2859,762.6105
79.5499,760.9912
79.8139,752.4605
79.9899,818.8141