File: RP-XRD-S2-2022/S22.csv
Angle,Counts
6.8399,5386.997
7.1039,5264.42
7.3679,4993.26
7.6319,4788.9
7.8959,4690.66
8.1599,4456.68
8.4239,4333.03
8.6879,4228.34
8.9519,4186.47
9.2159,3989.92
9.4799,3755.857
9.7439,3758.49
10.0079,3775.152
10.2719,4310.25
10.5359,3345.84
10.7999,3368.9
11.0639,3285.89
11.3279,3114.73
11.5919,2970.2
11.8559,2965.73
12.1199,3303.83
12.3839,3006.116
12.6479,2880.66
12.9119,2896
13.1759,2886.793
13.4399,3007.18
13.7039,3002.91
13.9679,3333.31
14.2319,4416.21
14.4959,3671.73
14.7599,2795.87
15.0239,2569.93
15.2879,2603.16
15.5519,2426.34
15.8159,2541.027
16.0799,2667.879
16.3439,2320.11
16.6079,2278.02
16.8719,2255.065
17.1359,2260.6
17.3999,2239.43
17.6639,2221.61
17.9279,2145.06
18.1919,2100.23
18.4559,2038.38
18.7199,2052.67
18.9839,2081.99
19.2479,2002.81
19.5119,1995.3
19.7759,2017.41
20.0399,2084.27
20.3039,2034.92
20.5679,2260.36
20.8319,2056.43
21.0959,2055.58
21.3599,2103.72
21.6239,1981.12
21.8879,2010.35
22.1519,1988.63
22.4159,2149.063
22.6799,2382.19
22.9439,3062.68
23.2079,3622.412
23.4719,3225.97
23.7359,3259.838
23.9999,3391.91
24.2639,18059.4
24.5279,3735.49
24.7919,3199.52
25.0559,2760.46
25.3199,2571.38
25.5839,3097.92
25.8479,2543.964
26.1119,2351.28
26.3759,2446.21
26.6399,2490.1
26.9039,2632.79
27.1679,2392.61
27.4319,2788.34
27.6959,2271.69
27.9599,2607.96
28.2239,2906.1
28.4879,2456.3
28.7519,2934.64
29.0159,3478.19
29.2799,2638.17
29.5439,2577.36
29.8079,2897.36
30.0719,2235.6
30.3359,2820.51
30.5999,2874.35
30.8639,7620.98
31.1279,14777.9
31.3919,3921.19
31.6559,2452.17
31.9199,3450.9
32.1839,2262.123
32.4479,3870.87
32.7119,2515.467
32.9759,2258.56
33.2399,2099.81
33.5039,1845.27
33.7679,1763.19
34.0319,1835.1
34.2959,1959.48
34.5599,1894.834
34.8239,1923.68
35.0879,1860.69
35.3519,1878.48
35.6159,2115.99
35.8799,1958.01
36.1439,1623.86
36.4079,1705.7
36.6719,1730.49
36.9359,4320.19
37.1999,1717.51
37.4639,1658.15
37.7279,1609.01
37.9919,1509.07
38.2559,1571.6
38.5199,2680.871
38.7839,1665.379
39.0479,1570.87
39.3119,1469.6
39.5759,1625.973
39.8399,1621.771
40.1039,1606.59
40.3679,1853.16
40.6319,2073.95
40.8959,2338
41.1599,2129.97
41.4239,2022.39
41.6879,1942.73
41.9519,2113.65
42.2159,1965.977
42.4799,1990.5
42.7439,5407.32
43.0079,2132.49
43.2719,2586.92
43.5359,1730.07
43.7999,1782.73
44.0639,1867.99
44.3279,1680.99
44.5919,1674.8
44.8559,1850.42
45.1199,1817.05
45.3839,1682.75
45.6479,1581.12
45.9119,1677.3
46.1759,4375.15
46.4399,1483.34
46.7039,1473.04
46.9679,1622.64
47.2319,2573.62
47.4959,1572.84
47.7599,1819.55
48.0239,1441.94
48.2879,1529.68
48.5519,1410.791
48.8159,1415.83
49.0799,1360.02
49.3439,1357.54
49.6079,2115.623
49.8719,2062.65
50.1359,1287.56
50.3999,1244.48
50.6639,1210.89
50.9279,1257.93
51.1919,1243.54
51.4559,1198.37
51.7199,1225
51.9839,1199.79
52.2479,1265.9
52.5119,1226.74
52.7759,1262.09
53.0399,1395.76
53.3039,3352.5
53.5679,1580.47
53.8319,2185.9
54.0959,1217.41
54.3599,1173.4
54.6239,1206.87
54.8879,1136.75
55.1519,1159.6
55.4159,1202.83
55.6799,1524.72
55.9439,1185.42
56.2079,1180.27
56.4719,1133.682
56.7359,1115.05
56.9999,1043.62
57.2639,1147.18
57.5279,1141.32
57.7919,1120.96
58.0559,1146.76
58.3199,1094.24
58.5839,1323.68
58.8479,3395.82
59.1119,2978.18
59.3759,1641.343
59.6399,1380.03
59.9039,1147.291
60.1679,1209.98
60.4319,1110.22
60.6959,1040.36
60.9599,977.5555
61.2239,951.5857
61.4879,1021.55
61.7519,1078.447
62.0159,1075.79
62.2799,1206.8
62.5439,1166.59
62.8079,1165.66
63.0719,1152.99
63.3359,1219.72
63.5999,1242.13
63.8639,1204.15
64.1279,1211.85
64.3919,1264.24
64.6559,2494.72
64.9199,1407.53
65.1839,1786.52
65.4479,1418.43
65.7119,1195.43
65.9759,1157.44
66.2399,1323.6
66.5039,1649.17
66.7679,1312.11
67.0319,1132.2
67.2959,1039.84
67.5599,1173.63
67.8239,1086.86
68.0879,1103.77
68.3519,994.8212
68.6159,1010.66
68.8799,1002.05
69.1439,986.0971
69.4079,1135.39
69.6719,1106.82
69.9359,1102.94
70.1999,1026.07
70.4639,1130.41
70.7279,1289.94
70.9919,2989.6
71.2559,1275.19
71.5199,1082.83
71.7839,1039.41
72.0479,973.9661
72.3119,1119.04
72.5759,1129.65
72.8399,1175.642
73.1039,1287
73.3679,1206.58
73.6319,1311.72
73.8959,1301.29
74.1599,1203.51
74.4239,1062.195
74.6879,1026.97
74.9519,1106.91
75.2159,1101.82
75.4799,1143.88
75.7439,1425.08
76.0079,1845.71
76.2719,1287.07
76.5359,997.293
76.7999,1011.11
77.0639,999.6965
77.3279,992.1991
77.5919,994.6149
77.8559,927.5525
78.1199,1074.08
78.3839,1107.83
78.6479,1045.67
78.9119,1040.9
79.1759,902.4933
79.4399,918.81
76.6459,849.1594
76.7999,754.8913