File: RP-XRD-S2-2022/S24.csv
Angle,Counts
3.7819,17174
4.0459,14090.2
4.3099,11618.1
4.5739,9798.07
4.8379,8099.62
5.1019,7081.32
5.3659,6128.13
5.6299,5491
5.8939,5147.08
6.1579,4952.61
6.4219,4805.91
6.6859,4627.09
6.9499,4536.18
7.2139,4406.7
7.4779,4110.16
7.7419,4187.22
8.0059,3935.98
8.2699,3947.5
8.5339,3918.16
8.7979,3773.056
9.0619,3768.91
9.3259,3773.7
9.5899,3640.1
9.8539,3581.55
10.1179,3630.62
10.3819,3572.764
10.6459,3350.04
10.9099,3506.82
11.1739,3394.823
11.4379,3280.99
11.7019,3165.23
11.9659,3160.354
12.2299,3210.55
12.4939,3103.79
12.7579,3086.351
13.0219,3042.45
13.2859,2885.98
13.5499,2915.31
13.8139,2800.9
14.0779,2891.407
14.3419,2962.45
14.6059,2814.04
14.8699,2606.81
15.1339,2611.73
15.3979,2592.17
15.6619,2507.23
15.9259,2542.54
16.1899,2580.92
16.4539,2396.49
16.7179,2283.46
16.9819,2187.84
17.2459,2217.32
17.5099,2250.55
17.7739,2175.5
18.0379,2097.63
18.3019,2035.99
18.5659,2059.87
18.8299,2105.761
19.0939,1996.04
19.3579,1922.14
19.6219,1926.35
19.8859,1988.99
20.1499,1913.12
20.4139,1902.19
20.6779,1953.79
20.9419,1938.58
21.2059,1925.575
21.4699,1861.48
21.7339,1854.758
21.9979,2058.56
22.2619,1822.34
22.5259,1792.42
22.7899,1752.63
23.0539,1821.58
23.3179,1887.17
23.5819,1852
23.8459,2103.87
24.1099,4584.69
24.3739,10653.2
24.6379,2148.63
24.9019,1776.4
25.1659,1786.04
25.4299,1683.891
25.6939,1794.15
25.9579,1739.41
26.2219,1720.32
26.4859,1607.12
26.7499,1763.08
27.0139,1824.64
27.2779,1611.2
27.5419,1616.46
27.8059,1672.74
28.0699,3033.97
28.3339,1782.66
28.5979,1632.19
28.8619,1744.03
29.1259,1637.15
29.3899,1635.4
29.6539,1670.9
29.9179,1838.62
30.1819,1698.42
30.4459,2308.99
30.7099,4014.44
30.9739,61638.6
31.2379,6616.43
31.5019,2758.93
31.7659,2092.19
32.0299,3359.846
32.2939,1885.71
32.5579,3841.71
32.8219,1763.47
33.0859,1871.34
33.3499,1586.826
33.6139,1632.67
33.8779,1481.41
34.1419,1459.39
34.4059,1697.72
34.6699,1444.61
34.9339,1463.15
35.1979,1460.39
35.4619,1412.78
35.7259,1304.29
35.9899,1366.75
36.2539,1279.27
36.5179,1341.18
36.7819,1249.89
37.0459,1188.947
37.3099,1237.76
37.5739,1248.81
37.8379,1178.54
38.1019,1164.22
38.3659,1191.18
38.6299,1170.12
38.8939,1150.78
39.1579,1127.97
39.4219,1181.81
39.6859,1159.519
39.9499,1180.661
40.2139,1155.61
40.4779,1202.08
40.7419,1150.74
41.0059,1275.956
41.2699,1187.49
41.5339,1144.22
41.7979,1090.08
42.0619,1169.27
42.3259,1238.47
42.5899,2294.06
42.8539,4185.08
43.1179,1228
43.3819,1118.27
43.6459,1099.53
43.9099,1131.42
44.1739,1057.31
44.4379,1071.72
44.7019,1009.26
44.9659,1091.05
45.2299,1064.65
45.4939,1067.404
45.7579,1055.12
46.0219,1463.23
46.2859,5956.415
46.5499,1159.469
46.8139,1054.73
47.0779,2378.98
47.3419,1486.85
47.6059,1007.61
47.8699,929.0793
48.1339,998.8143
48.3979,1008.07
48.6619,952.7137
48.9259,1135.699
49.1899,980.1563
49.4539,1084.67
49.7179,9134.47
49.9819,1114.13
50.2459,928.0647
50.5099,892.6108
50.7739,945.3302
51.0379,910.6047
51.3019,862
51.5659,874.4782
51.8299,876.9056
52.0939,892.9381
52.3579,860.6222
52.6219,865.5693
52.8859,917.0444
53.1499,883.8526
53.4139,1031.45
53.6779,3917.899
53.9419,1206.62
54.2059,855.2093
54.4699,829.1059
54.7339,804.2299
54.9979,807.9557
55.2619,840.6283
55.5259,858.4748
55.7899,897.7669
56.0539,859.558
56.3179,819.2448
56.5819,814.5074
56.8459,787.0972
57.1099,826.1774
57.3739,854.8791
57.6379,781.018
57.9019,793.6519
58.1659,829.3394
58.4299,883.637
58.6939,1331.96
58.9579,21052.3
59.2219,1666.18
59.4859,1083.99
59.7499,886.4365
60.0139,843.9643
60.2779,798.2241
60.5419,738.5075
60.8059,719.1327
61.0699,720.8819
61.3339,738.466
61.5979,691.7347
61.8619,752.829
62.1259,729.2536
62.3899,735.6995
62.6539,731.3097
62.9179,763.1591
63.1819,677.4074
63.4459,836.6665
63.7099,716.6693
63.9739,789.1682
64.2379,815.7052
64.5019,938.7053
64.7659,3239.83
65.0299,1002.3
65.2939,1882.13
65.5579,807.3712
65.8219,758.9614
66.0859,715.5223
66.3499,671.6897
66.6139,695.6845
66.8779,765.2062
67.1419,702.5841
67.4059,698.4663
67.6699,822.4542
67.9339,683.4779
68.1979,694.7405
68.4619,732.6013
68.7259,667.5311
68.9899,670.6784
69.2539,705.342
69.5179,630.646
69.7819,660.386
70.0459,657.9708
70.3099,695.3008
70.5739,940.2711
70.8379,2755.35
71.1019,6825.96
71.3659,875.2353
71.6299,707.1683
71.8939,673.6993
72.1579,699.7875
72.4219,704.0704
72.6859,655.5398
72.9499,663.4186
73.2139,680.3245
73.4779,642.6015
73.7419,643.9297
74.0059,662.9618
74.2699,654.9201
74.5339,615.6962
74.7979,633.3302
75.0619,672.0976
75.3259,622.4424
75.5899,691.708
75.8539,829.5577
76.1179,1100.3
76.3819,679.4276
76.6459,669.221
76.9099,614.5899
77.1739,603.0503
77.4379,616.8054
77.7019,614.7671
77.9659,660.0913
78.2299,1001.56
78.4939,715.5662
78.7579,664.8703
79.0219,663.6633
79.2859,614.0974
79.5499,652.3216
79.8139,661.8847
79.9899,676.5427