File: RP-XRD-S2-2022/S25.csv
Angle,Counts
6.3714,2434.32
6.6244,2387.49
6.8774,2324.5
7.1304,2219.28
7.3834,2145.09
7.6364,2121.53
7.8894,2041.14
8.1424,1950.93
8.3954,1973.6
8.6484,1899.03
8.9014,1914.518
9.1544,1842.75
9.4074,1817.1
9.6604,1743.598
9.9134,1706.19
10.1664,1766.66
10.4194,1735.5
10.6724,1639.377
10.9254,1574.43
11.1784,1590.5
11.4314,1570.4
11.6844,1609.01
11.9374,1563.18
12.1904,1620.011
12.4434,1565.53
12.6964,1505.47
12.9494,1537.26
13.2024,1487.04
13.4554,1457.85
13.7084,1375.53
13.9614,1436.32
14.2144,1406.64
14.4674,1404.66
14.7204,1260.64
14.9734,1293.52
15.2264,1293.37
15.4794,1320.83
15.7324,1262.58
15.9854,1234.36
16.2384,1252.73
16.4914,1238.37
16.7444,1177.705
16.9974,1130.42
17.2504,1096.848
17.5034,1084.67
17.7564,1100.85
18.0094,1040.11
18.2624,1043.92
18.5154,1034.93
18.7684,1035.64
19.0214,1043.92
19.2744,991.5677
19.5274,983.21
19.7804,1065.24
20.0334,970.8325
20.2864,976.9933
20.5394,1002.44
20.7924,949.7807
21.0454,1065.76
21.2984,1237.75
21.5514,998.7929
21.8044,995.6951
22.0574,942.6591
22.3104,959.8887
22.5634,890.9182
22.8164,894.9367
23.0694,995.2667
23.3224,962.9117
23.5754,1057.08
23.8284,1155.01
24.0814,2319.81
24.3344,7850.03
24.5874,1123.18
24.8404,954.8391
25.0934,944.5827
25.3464,937.6857
25.5994,965.7846
25.8524,913.0499
26.1054,946.3095
26.3584,880.5021
26.6114,884.4404
26.8644,1007.25
27.1174,847.3347
27.3704,913.5209
27.6234,829.1715
27.8764,1001.92
28.1294,1353.15
28.3824,890.3643
28.6354,826.3312
28.8884,898.1719
29.1414,862.2362
29.3944,865.6635
29.6474,871.5992
29.9004,932.9456
30.1534,882.5354
30.4064,1115.93
30.6594,1859.75
30.9124,15489.7
31.1654,6066.54
31.4184,1642.47
31.6714,1036.9
31.9244,1486.22
32.1774,989.9576
32.4304,1245.88
32.6834,1082.5
32.9364,899.0006
33.1894,859.4388
33.4424,812.3282
33.6954,833.5986
33.9484,785.3008
34.2014,919.0841
34.4544,907.5753
34.7074,787.7271
34.9604,741.5273
35.2134,806.526
35.4664,751.1482
35.7194,771.8614
35.9724,778.1438
36.2254,692.9968
36.4784,770.0351
36.7314,695.0788
36.9844,670.6515
37.2374,685.5187
37.4904,697.98
37.7434,641.1456
37.9964,647.5877
38.2494,652.2603
38.5024,688.7181
38.7554,629.6566
39.0084,631.9339
39.2614,591.0765
39.5144,611.9295
39.7674,610.2626
40.0204,666.0304
40.2734,618.9833
40.5264,642.5235
40.7794,699.6662
41.0324,646.6192
41.2854,685.0304
41.5384,652.9479
41.7914,627.2805
42.0444,701.7081
42.2974,666.856
42.5504,994.6313
42.8034,3165.34
43.0564,704.2078
43.3094,612.4936
43.5624,640.5822
43.8154,626.7702
44.0684,606
44.3214,573.7059
44.5744,555.7537
44.8274,595.724
45.0804,608.4191
45.3334,576.5564
45.5864,577.0941
45.8394,641.7694
46.0924,2044.79
46.3454,856.5265
46.5984,584.8658
46.8514,588.0502
47.1044,2174.21
47.3574,652.9517
47.6104,553.3999
47.8634,561.0355
48.1164,545.3266
48.3694,563.4636
48.6224,584.1394
48.8754,543.3285
49.1284,514.4588
49.3814,563.4272
49.6344,1530.02
49.8874,924.6326
50.1404,546.6408
50.3934,531.4153
50.6464,576.0901
50.8994,509.792
51.1524,482.339
51.4054,471.1693
51.6584,492.0105
51.9114,495.0688
52.1644,498.6445
52.4174,473.6335
52.6704,468.7789
52.9234,508.1725
53.1764,527.7787
53.4294,536.0728
53.6824,2654.22
53.9354,640.1776
54.1884,496.7976
54.4414,461.7249
54.6944,449.6574
54.9474,463.6411
55.2004,492.1415
55.4534,487.5884
55.7064,463.8962
55.9594,489.3724
56.2124,491.1632
56.4654,462.1294
56.7184,471.2965
56.9714,499.9224
57.2244,476.0679
57.4774,443.4592
57.7304,432.0019
57.9834,438.2147
58.2364,505.0922
58.4894,540.9467
58.7424,768.682
58.9954,5200.29
59.2484,717.9222
59.5014,679.5331
59.7544,500.4345
60.0074,438.1242
60.2604,451.0098
60.5134,437.234
60.7664,419.3334
61.0194,412.0938
61.2724,444.1704
61.5254,448.1427
61.7784,423.8461
62.0314,406.5211
62.2844,396.8143
62.5374,434.9399
62.7904,419.5443
63.0434,427.4712
63.2964,419.5404
63.5494,447.1979
63.8024,413.7147
64.0554,417.7559
64.3084,441.2945
64.5614,677.6658
64.8144,1344.84
65.0674,505.8823
65.3204,673.2807
65.5734,431.8577
65.8264,416.9136
66.0794,396.5973
66.3324,426.962
66.5854,380.6223
66.8384,392.1269
67.0914,398.384
67.3444,416.3341
67.5974,485.8495
67.8504,416.244
68.1034,400.4924
68.3564,383.674
68.6094,383.9473
68.8624,383.2947
69.1154,380.0114
69.3684,380.0162
69.6214,384.4203
69.8744,370.9072
70.1274,378.3992
70.3804,412.8239
70.6334,531.5674
70.8864,4083
71.1394,2278.28
71.3924,466.3029
71.6454,418.4814
71.8984,407.2281
72.1514,407.5185
72.4044,382.957
72.6574,392.3642
72.9104,356.2279
73.1634,370.7156
73.4164,368.8182
73.6694,389.1384
73.9224,393.7488
74.1754,350.3369
74.4284,351.2955
74.6814,345.1812
74.9344,383.6593
75.1874,359.7603
75.4404,389.35
75.6934,441.5156
75.9464,842.5421
76.1994,694.9618
76.4524,377.6842
76.7054,352.6877
76.9584,364.8223
77.2114,377.9248
77.4644,353.9653
77.7174,355.0334
77.9704,403.7784
78.2234,498.3559
78.4764,358.0795
78.7294,369.6794
78.9824,377.9746
79.2354,338.9762
79.4884,358.4699
79.7414,374.971
79.9724,88.987