File: RP-XRD-S2-2022/S31.csv
Pos. [°2?],Intensity [Counts]
6.4219,5535.89
6.6859,5333.87
6.9499,5181.4
7.2139,5166.44
7.4779,4930.21
7.7419,4780.23
8.0059,4796.98
8.2699,4675.88
8.5339,4402.115
8.7979,4397.29
9.0619,4162.56
9.3259,3972.58
9.5899,3902.469
9.8539,3915.295
10.1179,4043.18
10.3819,3965.14
10.6459,3435.42
10.9099,3395.52
11.1739,3205.96
11.4379,3194.81
11.7019,3145.33
11.9659,2996.56
12.2299,3182.28
12.4939,2926.17
12.7579,2993.885
13.0219,2987.292
13.2859,3042.35
13.5499,3120.85
13.8139,3395.54
14.0779,4135.92
14.3419,5812.17
14.6059,3200.43
14.8699,2687.03
15.1339,2613.63
15.3979,2491.16
15.6619,2491.12
15.9259,2531.6
16.1899,2406.52
16.4539,2392.25
16.7179,2215.05
16.9819,2236.27
17.2459,2274.27
17.5099,2100.8
17.7739,2222.49
18.0379,2107.04
18.3019,2122.23
18.5659,2211.22
18.8299,2061.9
19.0939,2033.1
19.3579,2052.62
19.6219,2054.239
19.8859,2020.04
20.1499,2078.35
20.4139,2124.86
20.6779,2358.83
20.9419,2116.6
21.2059,2272.87
21.4699,2110.77
21.7339,2063.5
21.9979,2108.469
22.2619,2107.48
22.5259,2336.14
22.7899,2840.46
23.0539,3933.33
23.3179,3737.7
23.5819,3488.96
23.8459,3484.03
24.1099,4931.12
24.3739,4636.48
24.6379,3227.395
24.9019,3179.39
25.1659,2829.86
25.4299,2704.84
25.6939,3039.05
25.9579,2726.3
26.2219,2552.19
26.4859,2505.22
26.7499,2667.09
27.0139,2575.63
27.2779,2439.94
27.5419,2668.93
27.8059,2468.52
28.0699,3048.09
28.3339,2821.42
28.5979,2701.74
28.8619,3736.12
29.1259,3353.33
29.3899,2959.35
29.6539,2994.79
29.9179,2553.43
30.1819,2363.93
30.4459,2742.85
30.7099,4010.06
30.9739,40454.3
31.2379,4445.03
31.5019,2754.08
31.7659,2522.23
32.0299,3448.44
32.2939,2851.64
32.5579,8578.76
32.8219,2521.29
33.0859,2130.9
33.3499,2018.66
33.6139,1896.33
33.8779,1859.68
34.1419,1909.86
34.4059,2066.342
34.6699,1871.72
34.9339,1976.87
35.1979,2321.42
35.4619,1988.48
35.7259,1863.22
35.9899,1848.25
36.2539,1629.33
36.5179,1722.6
36.7819,1716.95
37.0459,1690.35
37.3099,1643.85
37.5739,1547.02
37.8379,1596.92
38.1019,1511.23
38.3659,1644.29
38.6299,2003.67
38.8939,1623.01
39.1579,1493.59
39.4219,1506.38
39.6859,1610.593
39.9499,1745.25
40.2139,1766.66
40.4779,2011.06
40.7419,2438.73
41.0059,2366.17
41.2699,2116.15
41.5339,2183.86
41.7979,2063.82
42.0619,2185.66
42.3259,1978.12
42.5899,2963.05
42.8539,2457.55
43.1179,2025.52
43.3819,2133.05
43.6459,1828.84
43.9099,1898.34
44.1739,2012.12
44.4379,1820.88
44.7019,1907.83
44.9659,2117.22
45.2299,1833.19
45.4939,1732.46
45.7579,1891.44
46.0219,2098.33
46.2859,2850.48
46.5499,1551.95
46.8139,1633.88
47.0779,2674.34
47.3419,1579.42
47.6059,1609.63
47.8699,1489.96
48.1339,1473.51
48.3979,1469.153
48.6619,1376.525
48.9259,1583.43
49.1899,1380.9
49.4539,1384.52
49.7179,4797.415
49.9819,1438.57
50.2459,1428.24
50.5099,1273.69
50.7739,1254.92
51.0379,1293.413
51.3019,1241.17
51.5659,1234.76
51.8299,1269.19
52.0939,1192.73
52.3579,1309.32
52.6219,1259.71
52.8859,1298.4
53.1499,1423.53
53.4139,1576.48
53.6779,3087.44
53.9419,1323.5
54.2059,1254.65
54.4699,1243.57
54.7339,1226.04
54.9979,1216.25
55.2619,1352.39
55.5259,1286.177
55.7899,1335.64
56.0539,1262.02
56.3179,1269.5
56.5819,1227.6
56.8459,1287.19
57.1099,1170.01
57.3739,1107.6
57.6379,1193.168
57.9019,1129.8
58.1659,1177.78
58.4299,1206.2
58.6939,1448.18
58.9579,7386.44
59.2219,1301.02
59.4859,1343.08
59.7499,1149.64
60.0139,1145.09
60.2779,1099.17
60.5419,1055.95
60.8059,1035.73
61.0699,1012.3
61.3339,1074.15
61.5979,1079.9
61.8619,1096.04
62.1259,1087.65
62.3899,1121.73
62.6539,1189.6
62.9179,1111.07
63.1819,1176.09
63.4459,1281.33
63.7099,1260.22
63.9739,1281.62
64.2379,1303.14
64.5019,1382.4
64.7659,2128.57
65.0299,1442.18
65.2939,1446.9
65.5579,1267.35
65.8219,1210.39
66.0859,1221.08
66.3499,1542.76
66.6139,1195.49
66.8779,1196.72
67.1419,1125.33
67.4059,1111.018
67.6699,1111.23
67.9339,1070.73
68.1979,1127.54
68.4619,1110.77
68.7259,1083.65
68.9899,1051.94
69.2539,1086.67
69.5179,1083.19
69.7819,1095.99
70.0459,1093.43
70.3099,1061.69
70.5739,1176.78
70.8379,2846.77
71.1019,3467.05
71.3659,1137.81
71.6299,1081.04
71.8939,1119.31
72.1579,1158.03
72.4219,1170.95
72.6859,1200.18
72.9499,1257.22
73.2139,1333.634
73.4779,1235.85
73.7419,1509.47
74.0059,1320.32
74.2699,1208.54
74.5339,1092.83
74.7979,1084.49
75.0619,1088.89
75.3259,1134.85
75.5899,1147.404
75.8539,1243.24
76.1179,1368.34
76.3819,1106.81
76.6459,1008.84
76.9099,1003.73
77.1739,1019.89
77.4379,1084.66
77.7019,1058.7
77.9659,952.363
78.2299,1057.982
78.4939,984.1063
78.7579,981.6901
79.0219,1019.33
79.2859,966.0642
79.5499,972.8551