File: RP-XRD-S2-2022/Sample_D.csv
Pos. [°2?],Intensity [Counts]
7.5439,4942.32
7.7859,4932.64
8.0279,4783.04
8.2699,4639.37
8.5119,4403.27
8.7539,4413.56
8.9959,4225.92
9.2379,4150.1
9.4799,3932.85
9.7219,3813.33
9.9639,3819.1
10.2059,4244.24
10.4479,3682.79
10.6899,3417.001
10.9319,3320.47
11.1739,3275.01
11.4159,3247.09
11.6579,3197.18
11.8999,3157.584
12.1419,3201.471
12.3839,3023.46
12.6259,3056.37
12.8679,3034.62
13.1099,2997.943
13.3519,3017.37
13.5939,3022.13
13.8359,3308.89
14.0779,3844.24
14.3199,5146.14
14.5619,3471.92
14.8039,2793.1
15.0459,2564.39
15.2879,2618.584
15.5299,2454.42
15.7719,2585.78
16.0139,2581.35
16.2559,2314.81
16.4979,2369.16
16.7399,2220.68
16.9819,2220.76
17.2239,2145.61
17.4659,2225.39
17.7079,2156.78
17.9499,2107.48
18.1919,2035.24
18.4339,2196.73
18.6759,2016.27
18.9179,2063.23
19.1599,2072.05
19.4019,2011.19
19.6439,1952.75
19.8859,2004.8
20.1279,2038.31
20.3699,2070.29
20.6119,2292.52
20.8539,1995.73
21.0959,2112.29
21.3379,2061.71
21.5799,1972.72
21.8219,2029.21
22.0639,2101.71
22.3059,2060.1
22.5479,2217.24
22.7899,2580.7
23.0319,3590.33
23.2739,3618.93
23.5159,3368.26
23.7579,3388.86
23.9999,3670.55
24.2419,19263
24.4839,3769.17
24.7259,3573.2
24.9679,3060.28
25.2099,2885.6
25.4519,2662.79
25.6939,3159.04
25.9359,2592.75
26.1779,2431.36
26.4199,2386.25
26.6619,2487.87
26.9039,2747.427
27.1459,2296.58
27.3879,2691.8
27.6299,2247.62
27.8719,2378.82
28.1139,2699.11
28.3559,2573.04
28.5979,2537.21
28.8399,3229.91
29.0819,3311.85
29.3239,2782.79
29.5659,2676.27
29.8079,3137.37
30.0499,2287.66
30.2919,2306.81
30.5339,2814.48
30.7759,4429.8
31.0179,71255
31.2599,3964.18
31.5019,3076.6
31.7439,2304.63
31.9859,5702.93
32.2279,2303.49
32.4699,3370.91
32.7119,2582.57
32.9539,2318.08
33.1959,1838.02
33.4379,1793.4
33.6799,1769.48
33.9219,1785.68
34.1639,2188.83
34.4059,3081.44
34.6479,1969.35
34.8899,1777.91
35.1319,1809.2
35.3739,1757.85
35.6159,1729.129
35.8579,1698
36.0999,1616.22
36.3419,1518.86
36.5839,1624.6
36.8259,1553
37.0679,1507.9
37.3099,1556.99
37.5519,1558.79
37.7939,1516
38.0359,1458.32
38.2779,1490.29
38.5199,1545.56
38.7619,1599.83
39.0039,1568.93
39.2459,1453.8
39.4879,1459.01
39.7299,1475.59
39.9719,1545.5
40.2139,1570.51
40.4559,1872.72
40.6979,2139.68
40.9399,2254.42
41.1819,2411.74
41.4239,1973.62
41.6659,2069.7
41.9079,2149.18
42.1499,2210.89
42.3919,1956.56
42.6339,4127.151
42.8759,2246.32
43.1179,1995.4
43.3599,1804.64
43.6019,1605.54
43.8439,1735.09
44.0859,1836.9
44.3279,1751.96
44.5699,1747.36
44.8119,1784.63
45.0539,1855.33
45.2959,1648.83
45.5379,1652.12
45.7799,1642.72
46.0219,1965.28
46.2639,3742.42
46.5059,1494.53
46.7479,1340.65
46.9899,1668.84
47.2319,2515.72
47.4739,1385.4
47.7159,1355.18
47.9579,1365.92
48.1999,1432.24
48.4419,1432.85
48.6839,1313.9
48.9259,1430.43
49.1679,1303.44
49.4099,1264.07
49.6519,3145.005
49.8939,1653.328
50.1359,1306.51
50.3779,1197.94
50.6199,1413.282
50.8619,1288.15
51.1039,1166.59
51.3459,1120.1
51.5879,1173.67
51.8299,1188.82
52.0719,1111.53
52.3139,1181.31
52.5559,1140.5
52.7979,1150.23
53.0399,1237.89
53.2819,1442.35
53.5239,1419.54
53.7659,2587.43
54.0079,1217.57
54.2499,1191.65
54.4919,1151.93
54.7339,1161.38
54.9759,1151.96
55.2179,1195.43
55.4599,1323.15
55.7019,1288.54
55.9439,1470.64
56.1859,1181.18
56.4279,1259.337
56.6699,1251.38
56.9119,1195.17
57.1539,1219.82
57.3959,1139.79
57.6379,1122.69
57.8799,1174.39
58.1219,1081.9
58.3639,1100.95
58.6059,1253.55
58.8479,3043.67
59.0899,5091.48
59.3319,1253.626
59.5739,1225.96
59.8159,1071.77
60.0579,1033.4
60.2999,1024.91
60.5419,1027.73
60.7839,984.9233
61.0259,965.8046
61.2679,1011.47
61.5099,1096.8
61.7519,996.4929
61.9939,1012.57
62.2359,1022.83
62.4779,1059.64
62.7199,1186.04
62.9619,1159.39
63.2039,1135.89
63.4459,1131.33
63.6879,1118.16
63.9299,1249.71
64.1719,1236.47
64.4139,1232.66
64.6559,2704.29
64.8979,1576.64
65.1399,1398.35
65.3819,1463.82
65.6239,1129.35
65.8659,1113.37
66.1079,1053.97
66.3499,1097.48
66.5919,1017
66.8339,1145.12
67.0759,1080.991
67.3179,1010.99
67.5599,1101
67.8019,1080.8
68.0439,1017.12
68.2859,969.0747
68.5279,989.7828
68.7699,958.7752
69.0119,993.4297
69.2539,1022.37
69.4959,1011.34
69.7379,1011.61
69.9799,1044.335
70.2219,1023.8
70.4639,1129.39
70.7059,1123.75
70.9479,5913.23
71.1899,1639.52
71.4319,1043.975
71.6739,1005.23
71.9159,1053.57
72.1579,1022.26
72.3999,1080.18
72.6419,1031.87
72.8839,1106.55
73.1259,1172.05
73.3679,1180.48
73.6099,1254.543
73.8519,1419.89
74.0939,1192.12
74.3359,1076.07
74.5779,1044.16
74.8199,1009.26
75.0619,1044.68
75.3039,992.9554
75.5459,1034.104
75.7879,1106.29
76.0299,2533.23
76.2719,1293.2
76.5139,954.8524
76.7559,951.2331
76.9979,974.0491
77.2399,981.5704
77.4819,959.7246
77.7239,904.2377
77.9659,928.4187
78.2079,1089.13
78.4499,943.8633
78.6919,869.2991
78.9339,921.8806
79.1759,892.6641
79.4179,919.9294
79.6599,921.0781
79.7479,961.9748