File: RP-XRD-S2-2022/Sample_3_G4.csv
Angle,Counts
5.9644,2362.4
6.2174,2221.74
6.4704,2277.03
6.7234,2072.15
6.9764,2081.37
7.2294,2094.13
7.4824,1994.02
7.7354,2047.68
7.9884,2032.2
8.2414,1962.3
8.4944,2029.063
8.7474,1999.5
9.0004,1950.11
9.2534,1945.97
9.5064,1951.3
9.7594,1971.13
10.0124,1932.735
10.2654,2034.86
10.5184,1966.55
10.7714,1897.008
11.0244,1920.57
11.2774,1915.94
11.5304,1849.78
11.7834,1929.06
12.0364,1770.1
12.2894,1812.95
12.5424,1829.25
12.7954,1765.67
13.0484,1779.45
13.3014,1750.96
13.5544,1716.37
13.8074,1750.44
14.0604,1751.59
14.3134,1871.09
14.5664,1834.4
14.8194,1605.37
15.0724,1549.25
15.3254,1548.72
15.5784,1528.61
15.8314,1553.62
16.0844,1490.68
16.3374,1404.1
16.5904,1440.748
16.8434,1411.47
17.0964,1338.289
17.3494,1339.49
17.6024,1381.17
17.8554,1372.42
18.1084,1375.3
18.3614,1345.56
18.6144,1268.99
18.8674,1281.99
19.1204,1301.821
19.3734,1288.73
19.6264,1310.73
19.8794,1278.25
20.1324,1276.34
20.3854,1286.09
20.6384,1347.33
20.8914,1305.76
21.1444,1347.56
21.3974,1302.545
21.6504,1228.33
21.9034,1296.72
22.1564,1303.386
22.4094,1284.248
22.6624,1265.4
22.9154,1347.017
23.1684,1523.11
23.4214,1491.25
23.6744,1486.74
23.9274,1592.148
24.1804,4117.43
24.4334,2045.94
24.6864,1480.23
24.9394,1406.56
25.1924,1371.93
25.4454,1403.1
25.6984,1328.624
25.9514,1295.456
26.2044,1195
26.4574,1306.75
26.7104,1223.08
26.9634,1230.22
27.2164,1275.69
27.4694,1248.37
27.7224,1194.314
27.9754,1290.44
28.2284,1285.78
28.4814,1203.33
28.7344,1269.72
28.9874,1354.43
29.2404,1273.15
29.4934,1254.34
29.7464,1219.6
29.9994,1170.649
30.2524,1173.77
30.5054,1554.11
30.7584,2285.61
31.0114,31156.5
31.2644,3023.06
31.5174,1643.12
31.7704,1280.46
32.0234,1895.19
32.2764,1190.51
32.5294,1372.84
32.7824,1100.83
33.0354,1078.39
33.2884,1118.7
33.5414,1009.28
33.7944,981.5526
34.0474,971.4576
34.3004,1007.21
34.5534,994.4332
34.8064,978.5972
35.0594,1011.93
35.3124,945.6683
35.5654,943.161
35.8184,946.7157
36.0714,905.4072
36.3244,876.3928
36.5774,849.9467
36.8304,880.1392
37.0834,880.281
37.3364,886.0169
37.5894,866.4307
37.8424,903.2534
38.0954,803.6377
38.3484,802.7211
38.6014,824.6537
38.8544,805.2618
39.1074,783.3924
39.3604,763.5859
39.6134,790.0435
39.8664,795.4295
40.1194,845.4198
40.3724,818.7636
40.6254,833.2392
40.8784,925.0896
41.1314,860.9802
41.3844,922.1257
41.6374,928.688
41.8904,881.3517
42.1434,870.7845
42.3964,903.3581
42.6494,2098.15
42.9024,1280.68
43.1554,902.1902
43.4084,806.2901
43.6614,812.4746
43.9144,811.081
44.1674,819.9931
44.4204,777.5176
44.6734,790.8669
44.9264,807.7166
45.1794,861.8849
45.4324,774.1318
45.6854,779.2068
45.9384,836.6918
46.1914,3501.07
46.4444,795.5838
46.6974,735.7372
46.9504,833.0476
47.2034,2656.51
47.4564,761.2963
47.7094,746.986
47.9624,688
48.2154,699.2922
48.4684,683.9678
48.7214,734.1028
48.9744,723.0184
49.2274,679.706
49.4804,736.3198
49.7334,3132.55
49.9864,738.7503
50.2394,646.0003
50.4924,604.7581
50.7454,625.1845
50.9984,639.9931
51.2514,638.8055
51.5044,614.3825
51.7574,647.9428
52.0104,591.8181
52.2634,593.6916
52.5164,632.1695
52.7694,631.7669
53.0224,635.205
53.2754,661.2413
53.5284,682.7359
53.7814,1763.68
54.0344,576.0929
54.2874,636.3098
54.5404,587.4103
54.7934,588.1395
55.0464,592.5531
55.2994,624.2017
55.5524,548.8569
55.8054,560.0324
56.0584,570.2086
56.3114,582.6865
56.5644,599.9868
56.8174,560.5938
57.0704,557.3262
57.3234,648.6255
57.5764,587.0367
57.8294,551.8613
58.0824,577.9174
58.3354,565.16
58.5884,627.9477
58.8414,1448.02
59.0944,3800.826
59.3474,709.2466
59.6004,606.1874
59.8534,559.1168
60.1064,542.0572
60.3594,512.9467
60.6124,507.7807
60.8654,503.1321
61.1184,466.9909
61.3714,500.351
61.6244,490.0292
61.8774,535.4011
62.1304,491.2239
62.3834,471.9835
62.6364,517.9278
62.8894,517.1248
63.1424,525.3366
63.3954,526.6019
63.6484,492.6191
63.9014,555.3509
64.1544,524.0663
64.4074,626.8252
64.6604,1821.95
64.9134,1757.74
65.1664,686.7508
65.4194,719.9364
65.6724,503.1328
65.9254,505.5241
66.1784,505.8873
66.4314,482.1298
66.6844,476.1164
66.9374,473.2387
67.1904,459.634
67.4434,455.0189
67.6964,487.2411
67.9494,452.4775
68.2024,499.2454
68.4554,444.6823
68.7084,467.7107
68.9614,452.6909
69.2144,434.5037
69.4674,444.0734
69.7204,445
69.9734,488.8279
70.2264,473.1279
70.4794,527.6401
70.7324,671.3621
70.9854,3481.84
71.2384,773.0679
71.4914,492.4759
71.7444,462.7728
71.9974,419.2487
72.2504,461.7669
72.5034,457.4342
72.7564,462.5006
73.0094,464.1365
73.2624,464.9526
73.5154,500.5705
73.7684,508.5216
74.0214,492.1271
74.2744,429.9757
74.5274,475.5794
74.7804,471.4026
75.0334,431.2093
75.2864,436.6
75.5394,504.0472
75.7924,462.227
76.0454,877.8394
76.2984,547.5446
76.5514,419.9836
76.8044,410.27
77.0574,415.629
77.3104,439.9833
77.5634,415.2768
77.8164,437.585
78.0694,454.9932
78.3224,481.9411
78.5754,415.714
78.8284,428.6664
79.0814,409.9458
79.3344,416.9297
79.5874,412.4375
79.8404,420.7928