File: RP-XRD-S2-2022/Sample_01.csv
Pos. [°2?],Intensity [Counts]
6.9279,6219.51
7.1919,5965.45
7.4559,5831.05
7.7199,5727.39
7.9839,5657.52
8.2479,5652.3
8.5119,5468.72
8.7759,5547.62
9.0399,5245.75
9.3039,5448.38
9.5679,5358
9.8319,5210.18
10.0959,5209.95
10.3599,5307.65
10.6239,5056.64
10.8879,5049.41
11.1519,5196.14
11.4159,4983.45
11.6799,4899.29
11.9439,5022.4
12.2079,5153.33
12.4719,4930.298
12.7359,4854.29
12.9999,4898.44
13.2639,5202.38
13.5279,5121.54
13.7919,5075.7
14.0559,5201.95
14.3199,5475.32
14.5839,5478.89
14.8479,4971.888
15.1119,5046.34
15.3759,4977.39
15.6399,5019.24
15.9039,5108.05
16.1679,5250.78
16.4319,5102.036
16.6959,5288.61
16.9599,5265.56
17.2239,5593.81
17.4879,5320.56
17.7519,5493.53
18.0159,5166.63
18.2799,5342.41
18.5439,5269.76
18.8079,5325.73
19.0719,5339.84
19.3359,5254.89
19.5999,5220.97
19.8639,5231.5
20.1279,5268.07
20.3919,5274.3
20.6559,5264.69
20.9199,5373.09
21.1839,5510.44
21.4479,5298.63
21.7119,5184.91
21.9759,5249.31
22.2399,5254.39
22.5039,5437.3
22.7679,5543.07
23.0319,5760.98
23.2959,5810.28
23.5599,5755.57
23.8239,5920.04
24.0879,6660.6
24.3519,7067.48
24.6159,6001.6
24.8799,5903.51
25.1439,5958.14
25.4079,5936.44
25.6719,5865.112
25.9359,5768.05
26.1999,5531.36
26.4639,5490.15
26.7279,5286.05
26.9919,5251.5
27.2559,5025.25
27.5199,4985.732
27.7839,4939.75
28.0479,4870.97
28.3119,5029.32
28.5759,4508.22
28.8399,4793.88
29.1039,4432.76
29.3679,4450.96
29.6319,4289.64
29.8959,4115.28
30.1599,4075.52
30.4239,4211.61
30.6879,4915.7
30.9519,12623.1
31.2159,4589.77
31.4799,4113.29
31.7439,3914.05
32.0079,4412.22
32.2719,3882.18
32.5359,4719.6
32.7999,3864.93
33.0639,3744.11
33.3279,3543.12
33.5919,3452.51
33.8559,3389.78
34.1199,3413.27
34.3839,3505.176
34.6479,3428.19
34.9119,3426.85
35.1759,3540.65
35.4399,3296.81
35.7039,3300.858
35.9679,3265.84
36.2319,3155.94
36.4959,3416.76
36.7599,3165.3
37.0239,3113.84
37.2879,3092.88
37.5519,3009.06
37.8159,3135.27
38.0799,3110.04
38.3439,3088.85
38.6079,3036.322
38.8719,2975.015
39.1359,2959.68
39.3999,3035.9
39.6639,3003.14
39.9279,3026.75
40.1919,3034.26
40.4559,3166.05
40.7199,3241.6
40.9839,3160.88
41.2479,3065.57
41.5119,3083.53
41.7759,3002.75
42.0399,3053.88
42.3039,2972.82
42.5679,3409.384
42.8319,3220.89
43.0959,3005.61
43.3599,2997.58
43.6239,2925.68
43.8879,2959.52
44.1519,2873.26
44.4159,2899.06
44.6799,3080.08
44.9439,3034.83
45.2079,2815.84
45.4719,2760.394
45.7359,2741.1
45.9999,2941.29
46.2639,3053.23
46.5279,2751.88
46.7919,2789.71
47.0559,2905.18
47.3199,2732.52
47.5839,2757.64
47.8479,2653.85
48.1119,2621.83
48.3759,2742.07
48.6399,2606.41
48.9039,2705.31
49.1679,2574.73
49.4319,2652.5
49.6959,3299.41
49.9599,2668.544
50.2239,2520.38
50.4879,2459.97
50.7519,2455.07
51.0159,2597.5
51.2799,2500.86
51.5439,2419.52
51.8079,2406.01
52.0719,2362.85
52.3359,2341.81
52.5999,2335.11
52.8639,2374.79
53.1279,2477.74
53.3919,2434.83
53.6559,2719.195
53.9199,2531.439
54.1839,2276.57
54.4479,2319.68
54.7119,2195.1
54.9759,2260.527
55.2399,2243.18
55.5039,2204.332
55.7679,2155.14
56.0319,2076.42
56.2959,2178.26
56.5599,2146.92
56.8239,2138.55
57.0879,2096
57.3519,2031.35
57.6159,2099.63
57.8799,2083.62
58.1439,2023.33
58.4079,2085.24
58.6719,2257.66
58.9359,2858.86
59.1999,2082.33
59.4639,2084.65
59.7279,1919.492
59.9919,1992.58
60.2559,1956.02
60.5199,1878.589
60.7839,1870.77
61.0479,1785.62
61.3119,1817.951
61.5759,1862.92
61.8399,1789.36
62.1039,1827.055
62.3679,1799.97
62.6319,1816.04
62.8959,1838.583
63.1599,1710.58
63.4239,1846.33
63.6879,1840.08
63.9519,1820.97
64.2159,1812.57
64.4799,1909.71
64.7439,1902.851
65.0079,1874.55
65.2719,1855.37
65.5359,1781.98
65.7999,1702.91
66.0639,1744.698
66.3279,1760.19
66.5919,1683.45
66.8559,1667.82
67.1199,1662.25
67.3839,1701.6
67.6479,1614.2
67.9119,1615.04
68.1759,1734.83
68.4399,1552.79
68.7039,1639.59
68.9679,1660.07
69.2319,1602.36
69.4959,1627.6
69.7599,1603.71
70.0239,1496.15
70.2879,1639.21
70.5519,1655.09
70.8159,2126.18
71.0799,1996.44
71.3439,1570.19
71.6079,1570.17
71.8719,1542.08
72.1359,1557.55
72.3999,1596.82
72.6639,1534.964
72.9279,1557.63
73.1919,1590.26
73.4559,1580.59
73.7199,1642.2
73.9839,1535.49
74.2479,1517.52
74.5119,1505.16
74.7759,1501.52
75.0399,1519.79
75.3039,1534.13
75.5679,1549.12
75.8319,1549.55
76.0959,1558.82
76.3599,1550.87
76.6239,1508.17
76.8879,1485.393
77.1519,1497.748
77.4159,1486.74
77.6799,1454.57
77.9439,1459.33
78.2079,1493.226
78.4719,1455.34
78.7359,1473.52
78.9999,1486.52
79.2639,1424.21
79.5279,1396.5
79.7919,1396.31
79.9899,1447.3