File: RP-XRD-S2-2022/Sample_B.csv
Pos. [°2?],Intensity [Counts]
8.3359,4739.47
8.5779,4598.63
8.8199,4442.06
9.0619,4370.1
9.3039,4195.83
9.5459,4097.5
9.7879,3927.53
10.0299,4069.21
10.2719,4341.94
10.5139,3618.49
10.7559,3579.8
10.9979,3544.175
11.2399,3378.33
11.4819,3230.81
11.7239,3208.34
11.9659,3220.09
12.2079,3245.558
12.4499,3179.34
12.6919,3115.69
12.9339,3057.38
13.1759,3115.883
13.4179,3292.51
13.6599,3394.23
13.9019,3918.886
14.1439,4988.42
14.3859,6028.24
14.6279,3486.09
14.8699,2822.39
15.1119,2651.06
15.3539,2703.49
15.5959,2563.85
15.8379,2652.46
16.0799,2719.7
16.3219,2393.67
16.5639,2340.01
16.8059,2357.13
17.0479,2386.75
17.2899,2291.55
17.5319,2252.77
17.7739,2195.74
18.0159,2234.38
18.2579,2218.89
18.4999,2153.34
18.7419,2149.28
18.9839,2173.56
19.2259,2208.94
19.4679,2201.82
19.7099,2163.75
19.9519,2213.64
20.1939,2224.04
20.4359,2198.174
20.6779,2298.112
20.9199,2194.53
21.1619,2204.22
21.4039,2168.16
21.6459,2182
21.8879,2244.39
22.1299,2226.76
22.3719,2406.4
22.6139,2682.25
22.8559,3419.83
23.0979,5252.48
23.3399,4548.68
23.5819,4320.31
23.8239,4168.05
24.0659,4546.2
24.3079,8438.49
24.5499,3921.52
24.7919,3552.47
25.0339,3398.61
25.2759,3202.92
25.5179,3347.63
25.7599,3201.51
26.0019,3066.22
26.2439,2990.29
26.4859,2891.48
26.7279,3032.16
26.9699,3067.87
27.2119,2818.35
27.4539,3058.87
27.6959,2874.813
27.9379,3044.27
28.1799,3214.4
28.4219,3078.55
28.6639,3394.53
28.9059,5039.22
29.1479,3930.62
29.3899,3619.6
29.6319,3371.29
29.8739,3075.89
30.1159,2657.177
30.3579,2768.97
30.5999,3070.81
30.8419,5544.6
31.0839,19562.8
31.3259,3238.02
31.5679,2959.32
31.8099,2919.32
32.0519,4920.71
32.2939,4254.86
32.5359,6517.12
32.7779,2707.45
33.0199,2327.07
33.2619,2145.1
33.5039,2057.66
33.7459,1933.976
33.9879,2037.52
34.2299,1973.04
34.4719,2051.47
34.7139,2093.31
34.9559,2071.46
35.1979,2154.65
35.4399,2087.42
35.6819,1824.7
35.9239,2038.43
36.1659,1771.54
36.4079,1952.61
36.6499,1801.32
36.8919,1882.53
37.1339,1762.87
37.3759,1730.61
37.6179,1637.32
37.8599,1720.73
38.1019,1584.91
38.3439,1564.71
38.5859,1623.56
38.8279,1529.29
39.0699,1528.84
39.3119,1504.1
39.5539,1655.13
39.7959,1694.25
40.0379,1726.34
40.2799,2016.77
40.5219,2238.22
40.7639,3012.94
41.0059,2702.58
41.2479,2437.565
41.4899,2341.67
41.7319,2298.73
41.9739,2517.73
42.2159,2154.65
42.4579,2141.578
42.6999,4414.06
42.9419,2064.88
43.1839,2013.71
43.4259,1895.86
43.6679,2039.48
43.9099,2089.68
44.1519,2187.77
44.3939,2124.68
44.6359,2245.775
44.8779,2443.11
45.1199,2391.19
45.3619,1990.81
45.6039,1990.43
45.8459,2023.98
46.0879,2697.55
46.3299,1802.28
46.5719,1582.26
46.8139,1648.224
47.0559,1912.24
47.2979,1747.13
47.5399,1469.93
47.7819,1560.63
48.0239,1545.29
48.2659,1604.69
48.5079,1457.37
48.7499,1476.79
48.9919,1627.198
49.2339,1495.41
49.4759,1536.65
49.7179,3289.3
49.9599,1552.65
50.2019,1383.863
50.4439,1312.13
50.6859,1330.73
50.9279,1298.38
51.1699,1362.08
51.4119,1316.92
51.6539,1285.528
51.8959,1252.91
52.1379,1263.834
52.3799,1280.68
52.6219,1299.88
52.8639,1389.264
53.1059,1528.81
53.3479,1774.11
53.5899,1713.65
53.8319,1873.67
54.0739,1342.239
54.3159,1351.05
54.5579,1362.68
54.7999,1271.15
55.0419,1311.421
55.2839,1340.48
55.5259,1246.71
55.7679,1291.76
56.0099,1196.39
56.2519,1311.86
56.4939,1348.85
56.7359,1243.82
56.9779,1182.01
57.2199,1233.62
57.4619,1220.059
57.7039,1182.66
57.9459,1241.51
58.1879,1187.48
58.4299,1229.99
58.6719,1389.66
58.9139,5603.58
59.1559,1483.14
59.3979,1326.3
59.6399,1272.14
59.8819,1234.68
60.1239,1296.15
60.3659,1161.96
60.6079,1060.36
60.8499,971.9768
61.0919,964.2009
61.3339,1070.69
61.5759,1018.82
61.8179,1116.39
62.0599,1114.584
62.3019,1090.19
62.5439,1136.24
62.7859,1150.06
63.0279,1092.39
63.2699,1197.85
63.5119,1240.37
63.7539,1274.73
63.9959,1360.12
64.2379,1396.76
64.4799,1471.13
64.7219,1927.7
64.9639,1574.54
65.2059,1839.01
65.4479,1563.4
65.6899,1416.65
65.9319,1329.56
66.1739,1264.28
66.4159,1344.44
66.6579,1337.13
66.8999,1285.32
67.1419,1183.52
67.3839,1145.53
67.6259,1145.53
67.8679,1170.45
68.1099,1127.62
68.3519,1154.88
68.5939,1104.93
68.8359,1107.14
69.0779,1052.49
69.3199,1090.25
69.5619,1027.76
69.8039,1045.04
70.0459,1086.51
70.2879,1126.14
70.5299,1096.35
70.7719,1432.77
71.0139,1915.83
71.2559,1167.44
71.4979,1123.59
71.7399,1066.92
71.9819,1090.11
72.2239,1129.14
72.4659,1181.76
72.7079,1258.73
72.9499,1331.02
73.1919,1393.45
73.4339,1489.71
73.6759,1769.07
73.9179,1737.29
74.1599,1390.09
74.4019,1260.103
74.6439,1200.43
74.8859,1145.19
75.1279,1192.59
75.3699,1237.47
75.6119,1194.52
75.8539,1325.49
76.0959,1247.44
76.3379,1081.35
76.5799,1022.196
76.8219,1009.23
77.0639,1005.94
77.3059,1033.61
77.5479,1047.18
77.7899,1037.8
78.0319,986.27
78.2739,1016.88
78.5159,996.935
78.7579,1002.79
78.9999,1021.416
79.2419,966.4909
79.4839,980.0342
79.7259,1010.43
79.7479,1006.06