File: RP-XRD-S2-2022/Sample_4_G4.csv
Pos. [°2?],Intensity [Counts]
5.1504,2918.05
5.4034,2632.62
5.6564,2347.64
5.9094,2092.16
6.1624,1996.64
6.4154,1926.99
6.6684,1808.77
6.9214,1858.9
7.1744,1822.18
7.4274,1780.93
7.6804,1736.2
7.9334,1762.96
8.1864,1699.702
8.4394,1608.24
8.6924,1715.67
8.9454,1656.91
9.1984,1666.53
9.4514,1793.92
9.7044,1747.53
9.9574,1694.758
10.2104,1840.11
10.4634,1664
10.7164,1561.81
10.9694,1596.17
11.2224,1670.3
11.4754,1587.47
11.7284,1595.9
11.9814,1572.525
12.2344,1587.45
12.4874,1540.56
12.7404,1471.65
12.9934,1547.07
13.2464,1500.14
13.4994,1455.83
13.7524,1516.61
14.0054,1574.75
14.2584,1690.83
14.5114,1629.16
14.7644,1414.81
15.0174,1348.593
15.2704,1451.772
15.5234,1363.67
15.7764,1378.239
16.0294,1337.79
16.2824,1341.58
16.5354,1305.82
16.7884,1303.4
17.0414,1307.29
17.2944,1306.59
17.5474,1283.34
17.8004,1318.56
18.0534,1243.93
18.3064,1253.1
18.5594,1274.29
18.8124,1207.57
19.0654,1195.78
19.3184,1204.14
19.5714,1211.5
19.8244,1232.48
20.0774,1216.71
20.3304,1232.95
20.5834,1226.15
20.8364,1198.65
21.0894,1266.63
21.3424,1323.81
21.5954,1219.14
21.8484,1264.38
22.1014,1202.75
22.3544,1261.36
22.6074,1257.37
22.8604,1265.37
23.1134,1418.47
23.3664,1443.26
23.6194,1374.9
23.8724,1449.19
24.1254,1870.28
24.3784,5659.69
24.6314,1480.37
24.8844,1343.46
25.1374,1299.48
25.3904,1182.14
25.6434,1277.47
25.8964,1268.4
26.1494,1221.12
26.4024,1206.84
26.6554,1216.28
26.9084,1220.91
27.1614,1177.22
27.4144,1222.36
27.6674,1210.43
27.9204,1138.68
28.1734,1291.22
28.4264,1237.05
28.6794,1189.99
28.9324,1278.9
29.1854,1217.41
29.4384,1218.15
29.6914,1139.64
29.9444,1189.02
30.1974,1140.37
30.4504,1272.71
30.7034,1604.49
30.9564,6773.53
31.2094,5409.27
31.4624,1523.23
31.7154,1179.92
31.9684,1429.04
32.2214,1207.54
32.4744,1143.56
32.7274,1200.12
32.9804,1188.04
33.2334,1641.77
33.4864,1227.367
33.7394,1078.76
33.9924,1022.04
34.2454,1014.9
34.4984,1076.818
34.7514,989.8406
35.0044,958.0979
35.2574,959.4111
35.5104,973.3583
35.7634,906.1103
36.0164,962.3127
36.2694,956.7075
36.5224,945.7936
36.7754,1016.617
37.0284,2858.61
37.2814,970.6688
37.5344,883.3265
37.7874,928.8941
38.0404,861.1452
38.2934,981.5765
38.5464,2193.21
38.7994,1067.52
39.0524,901.4444
39.3054,842.6167
39.5584,837.7859
39.8114,860.2309
40.0644,865.3424
40.3174,827.7513
40.5704,834.6353
40.8234,876.4161
41.0764,957.8768
41.3294,875.661
41.5824,872.3346
41.8354,839.917
42.0884,851.6701
42.3414,864.3483
42.5944,1096.29
42.8474,3137.19
43.1004,1061.38
43.3534,2009.61
43.6064,859.6919
43.8594,825.3921
44.1124,921.6202
44.3654,809.7203
44.6184,778.8999
44.8714,816.2913
45.1244,857.4389
45.3774,866.6375
45.6304,799.864
45.8834,779.9263
46.1364,1355.39
46.3894,910.445
46.6424,778.2411
46.8954,794.2805
47.1484,1644.12
47.4014,897.9791
47.6544,1220.91
47.9074,929.1588
48.1604,766.0904
48.4134,710.0382
48.6664,722.0403
48.9194,705.0515
49.1724,737.7413
49.4254,722.2095
49.6784,1313.43
49.9314,1146.1
50.1844,704.2264
50.4374,667.001
50.6904,674.7183
50.9434,685.6071
51.1964,667.5289
51.4494,691.3271
51.7024,686.2503
51.9554,658.8233
52.2084,654.2212
52.4614,664.6414
52.7144,659.8124
52.9674,703.3923
53.2204,896.3637
53.4734,1105.7
53.7264,1478.12
53.9794,772.6107
54.2324,684.6338
54.4854,649
54.7384,649.9517
54.9914,679.812
55.2444,656.6214
55.4974,841.9005
55.7504,1185.45
56.0034,781.9728
56.2564,684.5923
56.5094,674.6737
56.7624,667.531
57.0154,605.9158
57.2684,587.1444
57.5214,611.3421
57.7744,599.4085
58.0274,624.3956
58.2804,615.5753
58.5334,687.6833
58.7864,800.7287
59.0394,2491.44
59.2924,719.9202
59.5454,697.3113
59.7984,595.0277
60.0514,576.6203
60.3044,587.8795
60.5574,590.3769
60.8104,581.179
61.0634,594.6993
61.3164,610.6597
61.5694,570.2486
61.8224,570.6718
62.0754,573.8727
62.3284,559.857
62.5814,558.6115
62.8344,548.149
63.0874,578.7903
63.3404,587.4164
63.5934,603.9738
63.8464,569.1636
64.0994,587.8193
64.3524,631.1695
64.6054,738.727
64.8584,1207.66
65.1114,627.3717
65.3644,776.5586
65.6174,628.697
65.8704,639.6988
66.1234,737.4218
66.3764,1547.37
66.6294,1043.81
66.8824,732.551
67.1354,588.6274
67.3884,585.5537
67.6414,586.2222
67.8944,537.9409
68.1474,610.3374
68.4004,518.9221
68.6534,560.6435
68.9064,523.8287
69.1594,559.7537
69.4124,589.3803
69.6654,594.2944
69.9184,582.0302
70.1714,561.7379
70.4244,559.1098
70.6774,603.032
70.9304,2862.66
71.1834,1831.03
71.4364,607.4338
71.6894,528.1118
71.9424,540.8598
72.1954,538.0961
72.4484,569.6592
72.7014,570.3895
72.9544,641.8883
73.2074,662.4944
73.4604,547.6228
73.7134,530.0414
73.9664,561.3395
74.2194,497.7049
74.4724,492.2749
74.7254,529.9637
74.9784,532.752
75.2314,510.0612
75.4844,523.9003
75.7374,535.8257
75.9904,792.6931
76.2434,868.0181
76.4964,672.1545
76.7494,499.159
77.0024,499.9107
77.2554,465.7339
77.5084,529.9785
77.7614,531.5699
78.0144,488.1301
78.2674,582.523
78.5204,514.7809
78.7734,538.4275
79.0264,493.3001
79.2794,519.4168
79.5324,457.6861
79.7854,486.0422
79.9394,537.7268