File: RP-XRD-S2-2022/Sample_A.csv
Angle,Counts
8.1379,4861.22
8.3799,4712.55
8.6219,4559.43
8.8639,4441.22
9.1059,4383.66
9.3479,4389.13
9.5899,4204.83
9.8319,4136.08
10.0739,4353.84
10.3159,4768.87
10.5579,3852.57
10.7999,3721.797
11.0419,3600.7
11.2839,3422.08
11.5259,3394.48
11.7679,3381.77
12.0099,3353.55
12.2519,3417.29
12.4939,3232.65
12.7359,3247.641
12.9779,3295.72
13.2199,3221.36
13.4619,3346.46
13.7039,3485.53
13.9459,3872.17
14.1879,5353.21
14.4299,5515.48
14.6719,3271.08
14.9139,2837.5
15.1559,2735.28
15.3979,2681.17
15.6399,2550.5
15.8819,2580.121
16.1239,2934.64
16.3659,2466.464
16.6079,2259.35
16.8499,2291.32
17.0919,2340.62
17.3339,2316.29
17.5759,2282.59
17.8179,2252.19
18.0599,2178.52
18.3019,2196.06
18.5439,2205.19
18.7859,2185.45
19.0279,2149.124
19.2699,2085.75
19.5119,2152.8
19.7539,2179.475
19.9959,2137.95
20.2379,2173.17
20.4799,2249.69
20.7219,2286.75
20.9639,2108.02
21.2059,2170.35
21.4479,2055.7
21.6899,2111.718
21.9319,2171.66
22.1739,2225.13
22.4159,2387.92
22.6579,2579.2
22.8999,3411.23
23.1419,4529.32
23.3839,3904.73
23.6259,3792.89
23.8679,3662.2
24.1099,4832.13
24.3519,6755.16
24.5939,3496.96
24.8359,3359.11
25.0779,3101.07
25.3199,3021.22
25.5619,3845.89
25.8039,2999.01
26.0459,2921.73
26.2879,2804.41
26.5299,2738.47
26.7719,2882.55
27.0139,3165.66
27.2559,2664.2
27.4979,3142.54
27.7399,3000.474
27.9819,2983.45
28.2239,3634.64
28.4659,2909.18
28.7079,3371.86
28.9499,4823.194
29.1919,3532.92
29.4339,3236.31
29.6759,3185.98
29.9179,2991.62
30.1599,2493.48
30.4019,2584.399
30.6439,3166.77
30.8859,7994.93
31.1279,16380.9
31.3699,3121.37
31.6119,2704.36
31.8539,2870.04
32.0959,3208.86
32.3379,3342.9
32.5799,4656.528
32.8219,2818.31
33.0639,2149.47
33.3059,2044.27
33.5479,1915.41
33.7899,1905.48
34.0319,1884.88
34.2739,1960.71
34.5159,1848.09
34.7579,1932.5
34.9999,1930.91
35.2419,1959.72
35.4839,2102.33
35.7259,1706.289
35.9679,1876.78
36.2099,1676.31
36.4519,1879.84
36.6939,1695.8
36.9359,2666.67
37.1779,1622.401
37.4199,1665.31
37.6619,1576.92
37.9039,1581.66
38.1459,1574.2
38.3879,1508.33
38.6299,1520.77
38.8719,1391.06
39.1139,1418.94
39.3559,1460.98
39.5979,1589.85
39.8399,1509.35
40.0819,1641.59
40.3239,1790.55
40.5659,2050.61
40.8079,2703.41
41.0499,2279.79
41.2919,2170.64
41.5339,2056.8
41.7759,1998.84
42.0179,2247.72
42.2599,1962.83
42.5019,2002.15
42.7439,4680.46
42.9859,1912.11
43.2279,1899.16
43.4699,1735.44
43.7119,1796.714
43.9539,1886.43
44.1959,1982.832
44.4379,1787.72
44.6799,1994.643
44.9219,2194.51
45.1639,1970.07
45.4059,1808.14
45.6479,1684.56
45.8899,1789.48
46.1319,3470.32
46.3739,1518.04
46.6159,1430.65
46.8579,1427.39
47.0999,2352.89
47.3419,1435.64
47.5839,1430.27
47.8259,1427.03
48.0679,1400.84
48.3099,1453.74
48.5519,1291.11
48.7939,1373.08
49.0359,1574
49.2779,1351.73
49.5199,1437.226
49.7619,2894.875
50.0039,1464.53
50.2459,1269.56
50.4879,1185.72
50.7299,1209.5
50.9719,1225.91
51.2139,1189.5
51.4559,1177.94
51.6979,1187.58
51.9399,1146.33
52.1819,1262.65
52.4239,1187.81
52.6659,1197.56
52.9079,1285.01
53.1499,1436.32
53.3919,1681.74
53.6339,1874.262
53.8759,1589.37
54.1179,1234.07
54.3599,1193.09
54.6019,1121.115
54.8439,1170.34
55.0859,1188.62
55.3279,1242.565
55.5699,1257.38
55.8119,1180.45
56.0539,1166.27
56.2959,1224.26
56.5379,1334.79
56.7799,1150.51
57.0219,1112.35
57.2639,1087.96
57.5059,1120.75
57.7479,1182.047
57.9899,1219.48
58.2319,1218.56
58.4739,1252
58.7159,1434.28
58.9579,6835.05
59.1999,1311.42
59.4419,1299.99
59.6839,1162.67
59.9259,1126.464
60.1679,1299.37
60.4099,1028.46
60.6519,985.105
60.8939,925.697
61.1359,866.4972
61.3779,999.7194
61.6199,968.89
61.8619,1017.45
62.1039,981.7538
62.3459,969.0911
62.5879,956.9289
62.8299,1028.98
63.0719,1033.239
63.3139,1082.27
63.5559,1070.34
63.7979,1196.35
64.0399,1260.81
64.2819,1222.19
64.5239,1364.272
64.7659,1795.91
65.0079,1380.56
65.2499,1659.96
65.4919,1253.872
65.7339,1185.35
65.9759,1164.266
66.2179,1160.46
66.4599,1202.93
66.7019,1174.06
66.9439,1183.217
67.1859,1057.302
67.4279,975.4368
67.6699,1002.861
67.9119,979.6811
68.1539,982.2546
68.3959,983.3601
68.6379,1010.6
68.8799,996.1077
69.1219,997.3013
69.3639,993.6212
69.6059,961.2583
69.8479,916.5778
70.0899,966.8643
70.3319,975.9022
70.5739,1006.63
70.8159,1642.51
71.0579,2251.134
71.2999,987.3844
71.5419,1010.29
71.7839,1001.46
72.0259,1011.29
72.2679,997.5451
72.5099,1080.97
72.7519,1092.66
72.9939,1179.11
73.2359,1158.69
73.4779,1307.69
73.7199,1518.315
73.9619,1498.58
74.2039,1356.907
74.4459,1271.66
74.6879,1043.75
74.9299,1042.72
75.1719,998.6932
75.4139,1041.88
75.6559,1023.92
75.8979,1211.42
76.1399,1119.71
76.3819,946.5162
76.6239,895.9562
76.8659,829.1618
77.1079,921.1521
77.3499,967.0499
77.5919,951.9797
77.8339,937.2831
78.0759,883.4656
78.3179,872.4732
78.5599,884.7948
78.8019,953.7501
79.0439,879.8124
79.2859,881.3539
79.5279,869.6874
79.7699,879.1868
79.9899,877.5912